##TITLE= Y. Matt MFE-2
##JCAMP-DX= 5.01  $$ datafile exported by Spectragryph v.1.2.14
##LONGDATE= 18/10/2017 13:53:22
##OWNER= unknown
##ORIGIN= unknown
##DATA TYPE= INFRARED SPECTRUM
##DATA CLASS= XYDATA
##SPECTROMETER/DATASYSTEM= unknown
##XUNITS= 1/CM
##YUNITS= TRANSMITTANCE
##XLABEL= Wavenumbers [1/cm]
##YLABEL= Transmittance
##XFACTOR= 1.000000
##YFACTOR= 1.000000
##FIRSTX= 3997.453000
##LASTX= 374.000000
##DELTAX= -1.416530
##NPOINTS= 2559
##XYDATA= (X++(Y..Y))
3997.453 0.88038 0.88013 0.88019 0.88066 0.88138 0.88209 0.88246 0.88228 0.88173 0.88128
3983.288 0.88114 0.88109 0.88082 0.88033 0.87992 0.87988 0.88022 0.88067 0.88090 0.88089
3969.122 0.88085 0.88093 0.88100 0.88094 0.88096 0.88125 0.88168 0.88193 0.88194 0.88188
3954.957 0.88185 0.88179 0.88164 0.88162 0.88189 0.88227 0.88228 0.88174 0.88101 0.88058
3940.792 0.88067 0.88112 0.88162 0.88199 0.88226 0.88254 0.88287 0.88313 0.88313 0.88275
3926.626 0.88211 0.88162 0.88163 0.88204 0.88248 0.88287 0.88338 0.88400 0.88437 0.88423
3912.461 0.88362 0.88280 0.88203 0.88141 0.88100 0.88097 0.88155 0.88248 0.88307 0.88308
3898.296 0.88305 0.88337 0.88381 0.88385 0.88327 0.88235 0.88156 0.88112 0.88124 0.88212
3884.130 0.88320 0.88356 0.88334 0.88324 0.88329 0.88318 0.88302 0.88305 0.88314 0.88309
3869.965 0.88301 0.88287 0.88256 0.88234 0.88256 0.88317 0.88378 0.88411 0.88401 0.88349
3855.800 0.88300 0.88356 0.88529 0.88630 0.88596 0.88519 0.88442 0.88384 0.88373 0.88407
3841.634 0.88439 0.88449 0.88476 0.88527 0.88546 0.88519 0.88463 0.88383 0.88293 0.88236
3827.469 0.88253 0.88321 0.88374 0.88378 0.88362 0.88353 0.88335 0.88320 0.88355 0.88423
3813.304 0.88458 0.88443 0.88411 0.88405 0.88460 0.88538 0.88545 0.88492 0.88475 0.88521
3799.139 0.88550 0.88540 0.88536 0.88543 0.88531 0.88505 0.88495 0.88507 0.88520 0.88524
3784.973 0.88531 0.88545 0.88546 0.88526 0.88507 0.88516 0.88530 0.88517 0.88485 0.88488
3770.808 0.88559 0.88648 0.88680 0.88659 0.88627 0.88586 0.88534 0.88504 0.88521 0.88554
3756.643 0.88545 0.88481 0.88405 0.88393 0.88499 0.88620 0.88614 0.88528 0.88508 0.88621
3742.477 0.88742 0.88761 0.88704 0.88629 0.88580 0.88587 0.88654 0.88740 0.88785 0.88754
3728.312 0.88665 0.88569 0.88530 0.88570 0.88647 0.88695 0.88684 0.88641 0.88605 0.88582
3714.147 0.88562 0.88551 0.88553 0.88553 0.88550 0.88555 0.88569 0.88596 0.88644 0.88697
3699.981 0.88718 0.88700 0.88671 0.88654 0.88658 0.88670 0.88668 0.88641 0.88618 0.88631
3685.816 0.88667 0.88690 0.88682 0.88645 0.88597 0.88571 0.88614 0.88744 0.88840 0.88794
3671.651 0.88692 0.88674 0.88759 0.88822 0.88795 0.88720 0.88655 0.88624 0.88620 0.88631
3657.485 0.88663 0.88695 0.88681 0.88616 0.88556 0.88573 0.88671 0.88716 0.88644 0.88539
3643.320 0.88485 0.88511 0.88579 0.88628 0.88631 0.88605 0.88559 0.88497 0.88448 0.88475
3629.155 0.88623 0.88797 0.88844 0.88776 0.88675 0.88600 0.88591 0.88650 0.88714 0.88711
3614.989 0.88652 0.88579 0.88506 0.88428 0.88377 0.88404 0.88482 0.88521 0.88488 0.88433
3600.824 0.88421 0.88451 0.88474 0.88474 0.88491 0.88541 0.88589 0.88608 0.88622 0.88650
3586.659 0.88653 0.88574 0.88443 0.88338 0.88293 0.88285 0.88285 0.88305 0.88359 0.88414
3572.493 0.88419 0.88375 0.88325 0.88313 0.88345 0.88363 0.88329 0.88267 0.88211 0.88162
3558.328 0.88106 0.88056 0.88047 0.88091 0.88155 0.88180 0.88125 0.88017 0.87933 0.87941
3544.163 0.88017 0.88069 0.88048 0.87989 0.87956 0.87970 0.88002 0.88020 0.88021 0.88021
3529.997 0.88032 0.88053 0.88061 0.88039 0.87996 0.87953 0.87913 0.87867 0.87820 0.87788
3515.832 0.87785 0.87804 0.87822 0.87830 0.87837 0.87848 0.87849 0.87829 0.87800 0.87775
3501.667 0.87756 0.87741 0.87737 0.87763 0.87813 0.87848 0.87823 0.87741 0.87645 0.87581
3487.501 0.87572 0.87613 0.87669 0.87701 0.87687 0.87634 0.87584 0.87575 0.87602 0.87629
3473.336 0.87640 0.87657 0.87689 0.87708 0.87686 0.87635 0.87593 0.87589 0.87619 0.87655
3459.171 0.87677 0.87691 0.87712 0.87726 0.87711 0.87669 0.87626 0.87605 0.87614 0.87646
3445.006 0.87669 0.87637 0.87557 0.87490 0.87481 0.87504 0.87513 0.87496 0.87463 0.87419
3430.840 0.87377 0.87357 0.87362 0.87371 0.87376 0.87390 0.87410 0.87422 0.87423 0.87421
3416.675 0.87418 0.87412 0.87411 0.87410 0.87398 0.87386 0.87390 0.87404 0.87409 0.87402
3402.510 0.87393 0.87384 0.87372 0.87361 0.87354 0.87349 0.87352 0.87366 0.87385 0.87397
3388.344 0.87396 0.87390 0.87389 0.87401 0.87418 0.87421 0.87394 0.87348 0.87311 0.87293
3374.179 0.87289 0.87300 0.87332 0.87376 0.87417 0.87441 0.87439 0.87405 0.87357 0.87339
3360.014 0.87370 0.87430 0.87478 0.87490 0.87463 0.87418 0.87379 0.87367 0.87386 0.87437
3345.848 0.87504 0.87556 0.87567 0.87543 0.87507 0.87480 0.87468 0.87466 0.87467 0.87478
3331.683 0.87504 0.87537 0.87555 0.87545 0.87517 0.87491 0.87482 0.87498 0.87533 0.87575
3317.518 0.87611 0.87625 0.87600 0.87539 0.87472 0.87444 0.87466 0.87516 0.87562 0.87589
3303.352 0.87608 0.87632 0.87644 0.87619 0.87561 0.87512 0.87501 0.87518 0.87544 0.87577
3289.187 0.87615 0.87652 0.87679 0.87683 0.87663 0.87637 0.87635 0.87657 0.87676 0.87673
3275.022 0.87657 0.87644 0.87635 0.87625 0.87616 0.87620 0.87643 0.87677 0.87702 0.87698
3260.856 0.87658 0.87604 0.87573 0.87588 0.87633 0.87674 0.87694 0.87700 0.87697 0.87677
3246.691 0.87647 0.87638 0.87678 0.87760 0.87839 0.87866 0.87829 0.87766 0.87724 0.87715
3232.526 0.87718 0.87714 0.87706 0.87713 0.87755 0.87825 0.87885 0.87892 0.87845 0.87784
3218.360 0.87753 0.87768 0.87811 0.87842 0.87835 0.87808 0.87803 0.87836 0.87889 0.87942
3204.195 0.87974 0.87966 0.87926 0.87897 0.87907 0.87938 0.87955 0.87956 0.87971 0.88014
3190.030 0.88061 0.88083 0.88079 0.88072 0.88077 0.88089 0.88097 0.88104 0.88118 0.88143
3175.864 0.88176 0.88206 0.88213 0.88181 0.88119 0.88048 0.87990 0.87957 0.87958 0.87981
3161.699 0.88001 0.88006 0.88008 0.88019 0.88018 0.87986 0.87951 0.87959 0.88019 0.88101
3147.534 0.88168 0.88207 0.88222 0.88216 0.88190 0.88152 0.88128 0.88150 0.88223 0.88312
3133.369 0.88366 0.88360 0.88321 0.88296 0.88298 0.88306 0.88306 0.88306 0.88315 0.88325
3119.203 0.88317 0.88276 0.88218 0.88178 0.88180 0.88212 0.88247 0.88266 0.88265 0.88248
3105.038 0.88222 0.88186 0.88129 0.88050 0.87984 0.87963 0.87971 0.87947 0.87840 0.87628
3090.873 0.87308 0.86884 0.86400 0.85942 0.85603 0.85442 0.85463 0.85624 0.85853 0.86079
3076.707 0.86262 0.86402 0.86501 0.86545 0.86515 0.86394 0.86179 0.85904 0.85635 0.85424
3062.542 0.85261 0.85096 0.84909 0.84739 0.84633 0.84605 0.84647 0.84748 0.84898 0.85084
3048.377 0.85298 0.85536 0.85787 0.86028 0.86221 0.86324 0.86311 0.86194 0.85982 0.85669
3034.211 0.85259 0.84806 0.84402 0.84136 0.84055 0.84143 0.84333 0.84539 0.84698 0.84778
3020.046 0.84780 0.84748 0.84742 0.84804 0.84945 0.85163 0.85433 0.85705 0.85929 0.86100
3005.881 0.86237 0.86356 0.86456 0.86533 0.86600 0.86671 0.86752 0.86820 0.86858 0.86889
2991.715 0.86957 0.87077 0.87223 0.87353 0.87431 0.87433 0.87371 0.87304 0.87295 0.87351
2977.550 0.87419 0.87450 0.87447 0.87437 0.87429 0.87408 0.87373 0.87340 0.87324 0.87315
2963.385 0.87295 0.87263 0.87242 0.87249 0.87262 0.87247 0.87205 0.87166 0.87159 0.87183
2949.219 0.87215 0.87227 0.87206 0.87175 0.87172 0.87207 0.87253 0.87277 0.87265 0.87226
2935.054 0.87180 0.87147 0.87130 0.87110 0.87072 0.87026 0.86992 0.86982 0.86995 0.87036
2920.889 0.87101 0.87170 0.87217 0.87236 0.87248 0.87280 0.87337 0.87400 0.87442 0.87455
2906.723 0.87456 0.87464 0.87492 0.87547 0.87617 0.87672 0.87694 0.87704 0.87731 0.87771
2892.558 0.87797 0.87794 0.87777 0.87772 0.87790 0.87818 0.87831 0.87821 0.87796 0.87769
2878.393 0.87745 0.87714 0.87671 0.87630 0.87614 0.87627 0.87650 0.87667 0.87684 0.87708
2864.227 0.87724 0.87707 0.87659 0.87619 0.87618 0.87649 0.87690 0.87731 0.87771 0.87803
2850.062 0.87819 0.87822 0.87824 0.87834 0.87854 0.87877 0.87892 0.87893 0.87891 0.87914
2835.897 0.87966 0.88020 0.88053 0.88066 0.88064 0.88057 0.88060 0.88086 0.88128 0.88165
2821.732 0.88191 0.88212 0.88229 0.88236 0.88233 0.88229 0.88224 0.88209 0.88178 0.88148
2807.566 0.88142 0.88164 0.88200 0.88236 0.88257 0.88247 0.88205 0.88159 0.88145 0.88171
2793.401 0.88214 0.88257 0.88292 0.88320 0.88331 0.88319 0.88290 0.88262 0.88254 0.88276
2779.236 0.88322 0.88373 0.88403 0.88401 0.88383 0.88366 0.88357 0.88346 0.88331 0.88320
2765.070 0.88319 0.88328 0.88343 0.88360 0.88377 0.88387 0.88378 0.88351 0.88323 0.88318
2750.905 0.88341 0.88381 0.88425 0.88473 0.88522 0.88550 0.88546 0.88531 0.88539 0.88578
2736.740 0.88625 0.88648 0.88633 0.88598 0.88570 0.88564 0.88574 0.88584 0.88585 0.88577
2722.574 0.88576 0.88599 0.88639 0.88670 0.88678 0.88674 0.88681 0.88709 0.88750 0.88777
2708.409 0.88766 0.88721 0.88675 0.88666 0.88699 0.88745 0.88776 0.88787 0.88787 0.88783
2694.244 0.88771 0.88761 0.88770 0.88798 0.88826 0.88839 0.88842 0.88844 0.88840 0.88829
2680.078 0.88827 0.88850 0.88889 0.88917 0.88922 0.88912 0.88902 0.88894 0.88891 0.88895
2665.913 0.88902 0.88903 0.88895 0.88882 0.88878 0.88889 0.88912 0.88940 0.88961 0.88969
2651.748 0.88968 0.88974 0.89002 0.89046 0.89077 0.89079 0.89061 0.89042 0.89023 0.89002
2637.582 0.88983 0.88977 0.88993 0.89035 0.89098 0.89157 0.89189 0.89187 0.89161 0.89128
2623.417 0.89111 0.89125 0.89177 0.89250 0.89317 0.89358 0.89378 0.89389 0.89394 0.89385
2609.252 0.89364 0.89338 0.89306 0.89273 0.89251 0.89250 0.89276 0.89325 0.89377 0.89399
2595.086 0.89385 0.89365 0.89370 0.89395 0.89409 0.89403 0.89392 0.89391 0.89399 0.89411
2580.921 0.89415 0.89404 0.89380 0.89345 0.89304 0.89275 0.89289 0.89343 0.89406 0.89449
2566.756 0.89478 0.89513 0.89562 0.89599 0.89593 0.89549 0.89513 0.89516 0.89555 0.89610
2552.590 0.89669 0.89718 0.89744 0.89730 0.89678 0.89623 0.89606 0.89633 0.89681 0.89722
2538.425 0.89736 0.89712 0.89659 0.89618 0.89633 0.89702 0.89766 0.89773 0.89730 0.89691
2524.260 0.89681 0.89682 0.89676 0.89661 0.89646 0.89637 0.89642 0.89669 0.89721 0.89778
2510.094 0.89806 0.89780 0.89710 0.89643 0.89631 0.89677 0.89734 0.89749 0.89708 0.89635
2495.929 0.89570 0.89539 0.89541 0.89558 0.89575 0.89593 0.89619 0.89654 0.89681 0.89684
2481.764 0.89672 0.89660 0.89642 0.89613 0.89604 0.89640 0.89692 0.89716 0.89717 0.89737
2467.599 0.89783 0.89815 0.89808 0.89787 0.89777 0.89770 0.89760 0.89760 0.89776 0.89793
2453.433 0.89799 0.89795 0.89793 0.89804 0.89831 0.89863 0.89888 0.89895 0.89881 0.89853
2439.268 0.89832 0.89835 0.89867 0.89915 0.89946 0.89945 0.89935 0.89953 0.89995 0.90017
2425.103 0.89996 0.89962 0.89953 0.89963 0.89967 0.89967 0.89986 0.90026 0.90057 0.90051
2410.937 0.90023 0.90007 0.90031 0.90082 0.90121 0.90124 0.90101 0.90076 0.90052 0.90028
2396.772 0.90021 0.90053 0.90114 0.90159 0.90155 0.90108 0.90055 0.90032 0.90051 0.90089
2382.607 0.90106 0.90082 0.90039 0.90019 0.90045 0.90102 0.90144 0.90154 0.90154 0.90167
2368.441 0.90195 0.90261 0.90391 0.90544 0.90624 0.90576 0.90446 0.90343 0.90337 0.90385
2354.276 0.90386 0.90299 0.90176 0.90089 0.90075 0.90133 0.90225 0.90280 0.90247 0.90166
2340.111 0.90114 0.90112 0.90132 0.90146 0.90144 0.90118 0.90082 0.90075 0.90102 0.90118
2325.945 0.90095 0.90064 0.90061 0.90084 0.90104 0.90105 0.90094 0.90094 0.90110 0.90127
2311.780 0.90127 0.90117 0.90114 0.90138 0.90188 0.90239 0.90255 0.90220 0.90156 0.90112
2297.615 0.90131 0.90204 0.90278 0.90316 0.90325 0.90331 0.90335 0.90322 0.90298 0.90280
2283.449 0.90276 0.90272 0.90277 0.90311 0.90363 0.90385 0.90363 0.90324 0.90310 0.90349
2269.284 0.90438 0.90520 0.90532 0.90478 0.90421 0.90426 0.90503 0.90599 0.90624 0.90555
2255.119 0.90473 0.90470 0.90537 0.90577 0.90529 0.90442 0.90417 0.90470 0.90515 0.90493
2240.953 0.90465 0.90534 0.90710 0.90889 0.90963 0.90931 0.90877 0.90863 0.90893 0.90942
2226.788 0.90962 0.90902 0.90788 0.90702 0.90675 0.90680 0.90719 0.90814 0.90919 0.90963
2212.623 0.90926 0.90844 0.90762 0.90734 0.90791 0.90884 0.90912 0.90810 0.90612 0.90434
2198.457 0.90395 0.90519 0.90709 0.90862 0.90962 0.91039 0.91093 0.91121 0.91142 0.91176
2184.292 0.91219 0.91247 0.91217 0.91099 0.90960 0.90919 0.91012 0.91168 0.91292 0.91344
2170.127 0.91365 0.91448 0.91612 0.91746 0.91727 0.91593 0.91530 0.91698 0.92064 0.92411
2155.962 0.92566 0.92503 0.92252 0.91874 0.91505 0.91278 0.91204 0.91220 0.91276 0.91335
2141.796 0.91336 0.91250 0.91117 0.91016 0.90998 0.91049 0.91094 0.91044 0.90873 0.90637
2127.631 0.90439 0.90347 0.90349 0.90369 0.90338 0.90258 0.90193 0.90197 0.90260 0.90337
2113.466 0.90403 0.90462 0.90514 0.90542 0.90547 0.90543 0.90542 0.90560 0.90612 0.90674
2099.300 0.90705 0.90692 0.90647 0.90564 0.90451 0.90359 0.90331 0.90339 0.90327 0.90293
2085.135 0.90285 0.90340 0.90446 0.90573 0.90698 0.90815 0.90926 0.91036 0.91133 0.91190
2070.970 0.91206 0.91205 0.91203 0.91208 0.91240 0.91314 0.91421 0.91524 0.91574 0.91557
2056.804 0.91512 0.91472 0.91414 0.91334 0.91311 0.91403 0.91547 0.91623 0.91597 0.91524
2042.639 0.91472 0.91500 0.91599 0.91654 0.91568 0.91423 0.91403 0.91543 0.91703 0.91775
2028.474 0.91766 0.91702 0.91595 0.91461 0.91328 0.91253 0.91288 0.91398 0.91475 0.91471
2014.308 0.91459 0.91520 0.91658 0.91833 0.92010 0.92151 0.92209 0.92192 0.92171 0.92198
2000.143 0.92244 0.92246 0.92180 0.92064 0.91933 0.91811 0.91679 0.91515 0.91368 0.91325
1985.978 0.91408 0.91517 0.91528 0.91418 0.91278 0.91189 0.91135 0.91108 0.91170 0.91332
1971.812 0.91496 0.91563 0.91498 0.91296 0.90998 0.90719 0.90561 0.90517 0.90507 0.90506
1957.647 0.90577 0.90748 0.90952 0.91112 0.91212 0.91256 0.91227 0.91139 0.91066 0.91070
1943.482 0.91140 0.91192 0.91178 0.91148 0.91184 0.91298 0.91427 0.91503 0.91510 0.91472
1929.316 0.91419 0.91374 0.91347 0.91332 0.91306 0.91262 0.91231 0.91236 0.91262 0.91284
1915.151 0.91290 0.91258 0.91173 0.91058 0.90969 0.90925 0.90898 0.90872 0.90859 0.90866
1900.986 0.90879 0.90886 0.90901 0.90955 0.91054 0.91172 0.91277 0.91349 0.91375 0.91344
1886.820 0.91271 0.91196 0.91150 0.91141 0.91173 0.91249 0.91346 0.91415 0.91424 0.91386
1872.655 0.91340 0.91315 0.91311 0.91297 0.91248 0.91196 0.91187 0.91230 0.91288 0.91328
1858.490 0.91357 0.91415 0.91520 0.91641 0.91731 0.91770 0.91776 0.91771 0.91753 0.91715
1844.325 0.91665 0.91624 0.91596 0.91569 0.91531 0.91485 0.91440 0.91395 0.91344 0.91293
1830.159 0.91251 0.91214 0.91169 0.91114 0.91048 0.90968 0.90885 0.90823 0.90804 0.90834
1815.994 0.90894 0.90954 0.91007 0.91081 0.91196 0.91332 0.91447 0.91531 0.91601 0.91673
1801.829 0.91744 0.91803 0.91831 0.91809 0.91735 0.91649 0.91604 0.91610 0.91613 0.91574
1787.663 0.91517 0.91467 0.91429 0.91399 0.91390 0.91420 0.91477 0.91522 0.91536 0.91533
1773.498 0.91556 0.91639 0.91748 0.91825 0.91863 0.91877 0.91877 0.91883 0.91911 0.91947
1759.333 0.91957 0.91933 0.91882 0.91815 0.91752 0.91720 0.91743 0.91798 0.91810 0.91755
1745.167 0.91683 0.91636 0.91613 0.91586 0.91531 0.91440 0.91340 0.91264 0.91212 0.91130
1731.002 0.90987 0.90812 0.90650 0.90521 0.90413 0.90311 0.90218 0.90153 0.90140 0.90212
1716.837 0.90359 0.90487 0.90550 0.90569 0.90567 0.90561 0.90558 0.90557 0.90550 0.90526
1702.671 0.90487 0.90467 0.90501 0.90537 0.90513 0.90415 0.90243 0.89991 0.89619 0.89071
1688.506 0.88377 0.87609 0.86676 0.85433 0.84220 0.83436 0.82963 0.82637 0.82416 0.82291
1674.341 0.82210 0.82126 0.82065 0.82082 0.82160 0.82206 0.82212 0.82257 0.82414 0.82652
1660.175 0.82865 0.83015 0.83122 0.83237 0.83529 0.84194 0.84825 0.85088 0.85247 0.85559
1646.010 0.86015 0.86387 0.86632 0.86848 0.87071 0.87284 0.87518 0.87864 0.88262 0.88520
1631.845 0.88641 0.88728 0.88835 0.88956 0.89055 0.89130 0.89191 0.89216 0.89180 0.89105
1617.679 0.89033 0.88978 0.88906 0.88799 0.88676 0.88563 0.88472 0.88386 0.88266 0.88073
1603.514 0.87762 0.87284 0.86598 0.85702 0.84656 0.83595 0.82698 0.82124 0.81980 0.82318
1589.349 0.83095 0.84126 0.85150 0.85975 0.86547 0.86891 0.87051 0.87101 0.87181 0.87466
1575.183 0.87931 0.88330 0.88606 0.88882 0.89228 0.89553 0.89768 0.89900 0.89990 0.90040
1561.018 0.90068 0.90141 0.90290 0.90405 0.90475 0.90542 0.90617 0.90707 0.90812 0.90907
1546.853 0.90974 0.91030 0.91104 0.91212 0.91371 0.91552 0.91645 0.91638 0.91601 0.91595
1532.687 0.91637 0.91669 0.91652 0.91602 0.91540 0.91473 0.91402 0.91303 0.91149 0.90969
1518.522 0.90805 0.90650 0.90495 0.90335 0.90166 0.89998 0.89854 0.89757 0.89728 0.89707
1504.357 0.89607 0.89428 0.89127 0.88534 0.87244 0.84661 0.80817 0.76776 0.73435 0.71176
1490.192 0.70405 0.71228 0.72763 0.74079 0.74986 0.75639 0.76217 0.76845 0.77606 0.78553
1476.026 0.79680 0.80937 0.82278 0.83504 0.84354 0.84872 0.85273 0.85710 0.86202 0.86628
1461.861 0.86901 0.87069 0.87252 0.87533 0.87720 0.87410 0.86408 0.84755 0.82842 0.81384
1447.696 0.80757 0.80277 0.78818 0.76167 0.73327 0.71662 0.71888 0.73987 0.77182 0.79971
1433.530 0.81716 0.82890 0.83928 0.84861 0.85562 0.86039 0.86396 0.86685 0.86890 0.87012
1419.365 0.87086 0.87118 0.87081 0.86989 0.86886 0.86807 0.86775 0.86785 0.86819 0.86863
1405.200 0.86909 0.86938 0.86935 0.86903 0.86847 0.86765 0.86652 0.86502 0.86301 0.86061
1391.034 0.85806 0.85554 0.85320 0.85138 0.85057 0.85112 0.85309 0.85627 0.86013 0.86404
1376.869 0.86774 0.87136 0.87493 0.87792 0.88008 0.88175 0.88330 0.88473 0.88605 0.88743
1362.704 0.88890 0.89026 0.89135 0.89227 0.89309 0.89379 0.89433 0.89480 0.89530 0.89588
1348.538 0.89651 0.89713 0.89761 0.89784 0.89790 0.89794 0.89810 0.89839 0.89877 0.89907
1334.373 0.89918 0.89903 0.89859 0.89771 0.89604 0.89327 0.88961 0.88612 0.88420 0.88452
1320.208 0.88660 0.88933 0.89185 0.89391 0.89552 0.89672 0.89759 0.89820 0.89856 0.89863
1306.042 0.89851 0.89836 0.89827 0.89820 0.89808 0.89795 0.89791 0.89802 0.89828 0.89859
1291.877 0.89878 0.89870 0.89822 0.89731 0.89610 0.89482 0.89350 0.89202 0.89036 0.88868
1277.712 0.88732 0.88673 0.88714 0.88843 0.89010 0.89161 0.89264 0.89322 0.89341 0.89325
1263.546 0.89276 0.89208 0.89133 0.89052 0.88968 0.88908 0.88903 0.88964 0.89072 0.89205
1249.381 0.89343 0.89471 0.89587 0.89694 0.89783 0.89836 0.89857 0.89872 0.89907 0.89959
1235.216 0.90000 0.90014 0.90005 0.89990 0.89983 0.89994 0.90024 0.90066 0.90107 0.90137
1221.050 0.90145 0.90129 0.90097 0.90066 0.90046 0.90030 0.89999 0.89948 0.89888 0.89823
1206.885 0.89736 0.89612 0.89452 0.89276 0.89099 0.88930 0.88777 0.88643 0.88507 0.88338
1192.720 0.88098 0.87750 0.87256 0.86573 0.85609 0.84288 0.82813 0.81792 0.81813 0.82856
1178.555 0.84302 0.85535 0.86359 0.86876 0.87214 0.87437 0.87569 0.87631 0.87649 0.87652
1164.389 0.87648 0.87621 0.87548 0.87426 0.87288 0.87180 0.87115 0.87067 0.87042 0.87121
1150.224 0.87395 0.87848 0.88343 0.88739 0.88995 0.89156 0.89276 0.89383 0.89485 0.89586
1136.059 0.89686 0.89778 0.89843 0.89865 0.89854 0.89832 0.89812 0.89796 0.89777 0.89756
1121.893 0.89735 0.89716 0.89700 0.89683 0.89656 0.89603 0.89520 0.89424 0.89337 0.89262
1107.728 0.89182 0.89072 0.88926 0.88763 0.88597 0.88430 0.88265 0.88123 0.88017 0.87923
1093.563 0.87781 0.87532 0.87125 0.86507 0.85634 0.84502 0.83194 0.81937 0.81113 0.81081
1079.397 0.81906 0.83275 0.84739 0.85982 0.86899 0.87523 0.87929 0.88188 0.88343 0.88418
1065.232 0.88443 0.88451 0.88472 0.88519 0.88598 0.88713 0.88855 0.89006 0.89147 0.89259
1051.067 0.89330 0.89356 0.89341 0.89263 0.89052 0.88585 0.87702 0.86244 0.84148 0.81624
1036.901 0.79276 0.77881 0.77873 0.79011 0.80620 0.82110 0.83252 0.84088 0.84745 0.85325
1022.736 0.85873 0.86371 0.86773 0.87061 0.87292 0.87560 0.87905 0.88272 0.88582 0.88789
1008.571 0.88835 0.88529 0.87601 0.86050 0.84467 0.83736 0.84271 0.85643 0.87024 0.87869
994.405 0.88121 0.87987 0.87702 0.87457 0.87389 0.87566 0.87945 0.88402 0.88821 0.89157
980.240 0.89423 0.89635 0.89801 0.89940 0.90061 0.90161 0.90243 0.90322 0.90422 0.90554
966.075 0.90704 0.90849 0.90974 0.91078 0.91165 0.91240 0.91300 0.91351 0.91400 0.91448
951.909 0.91489 0.91524 0.91558 0.91588 0.91595 0.91537 0.91345 0.90991 0.90577 0.90287
937.744 0.90209 0.90289 0.90455 0.90693 0.90988 0.91272 0.91480 0.91603 0.91672 0.91726
923.579 0.91783 0.91836 0.91870 0.91877 0.91867 0.91859 0.91873 0.91913 0.91952 0.91960
909.413 0.91930 0.91881 0.91836 0.91797 0.91743 0.91641 0.91445 0.91073 0.90438 0.89555
895.248 0.88583 0.87734 0.87182 0.87062 0.87445 0.88232 0.89156 0.89954 0.90528 0.90913
881.083 0.91177 0.91372 0.91528 0.91650 0.91740 0.91811 0.91866 0.91904 0.91928 0.91945
866.918 0.91964 0.91978 0.91961 0.91876 0.91718 0.91521 0.91334 0.91185 0.91066 0.90921
852.752 0.90690 0.90374 0.90046 0.89786 0.89622 0.89549 0.89580 0.89741 0.90001 0.90259
838.587 0.90402 0.90377 0.90200 0.89934 0.89676 0.89526 0.89557 0.89778 0.90128 0.90500
824.422 0.90816 0.91055 0.91230 0.91360 0.91481 0.91642 0.91864 0.92119 0.92373 0.92614
810.256 0.92830 0.92995 0.93104 0.93192 0.93293 0.93400 0.93483 0.93512 0.93476 0.93401
796.091 0.93326 0.93273 0.93258 0.93293 0.93371 0.93450 0.93495 0.93531 0.93604 0.93700
781.926 0.93740 0.93659 0.93458 0.93158 0.92732 0.92049 0.90881 0.88974 0.86116 0.82212
767.760 0.77579 0.73326 0.71005 0.71387 0.73667 0.76090 0.77228 0.76532 0.74053 0.70096
753.595 0.65150 0.59993 0.55745 0.53604 0.54187 0.57048 0.60971 0.64862 0.68352 0.71610
739.430 0.74791 0.77792 0.80407 0.82532 0.84199 0.85523 0.86643 0.87661 0.88610 0.89465
725.264 0.90192 0.90770 0.91193 0.91458 0.91551 0.91431 0.91019 0.90223 0.88984 0.87262
711.099 0.84935 0.81692 0.77112 0.70900 0.63136 0.54476 0.46206 0.39950 0.36982 0.37538
696.934 0.40731 0.45172 0.49718 0.53835 0.57492 0.60800 0.63750 0.66224 0.68155 0.69607
682.768 0.70729 0.71664 0.72504 0.73281 0.73998 0.74680 0.75356 0.76011 0.76631 0.77311
668.603 0.78147 0.78891 0.79249 0.79369 0.79473 0.79674 0.80025 0.80542 0.81190 0.81922
654.438 0.82721 0.83555 0.84345 0.84996 0.85470 0.85781 0.85938 0.85931 0.85727 0.85095
640.272 0.83366 0.79555 0.73102 0.64913 0.57608 0.54041 0.55109 0.59275 0.64208 0.68489
626.107 0.71804 0.74150 0.75414 0.75672 0.75488 0.75648 0.76551 0.77941 0.79308 0.80386
611.942 0.81180 0.81745 0.82125 0.82375 0.82576 0.82789 0.83027 0.83272 0.83530 0.83796
597.776 0.84020 0.84138 0.84137 0.84048 0.83910 0.83752 0.83624 0.83591 0.83680 0.83867
583.611 0.84125 0.84451 0.84792 0.85032 0.85123 0.85159 0.85273 0.85470 0.85657 0.85776
569.446 0.85851 0.85890 0.85847 0.85737 0.85681 0.85773 0.85971 0.86154 0.86254 0.86282
555.280 0.86275 0.86246 0.86186 0.86089 0.85973 0.85893 0.85899 0.85984 0.86104 0.86229
541.115 0.86342 0.86415 0.86417 0.86325 0.86137 0.85890 0.85639 0.85335 0.84763 0.83666
526.950 0.82051 0.80462 0.79711 0.80145 0.81411 0.82858 0.84000 0.84722 0.85137 0.85332
512.785 0.85355 0.85323 0.85379 0.85574 0.85830 0.86035 0.86123 0.86059 0.85751 0.85032
498.619 0.83768 0.81977 0.79846 0.77653 0.75750 0.74634 0.74757 0.76136 0.78300 0.80580
484.454 0.82432 0.83668 0.84435 0.84951 0.85313 0.85556 0.85771 0.86051 0.86366 0.86609
470.289 0.86752 0.86823 0.86815 0.86753 0.86736 0.86831 0.87034 0.87342 0.87717 0.87971
456.123 0.87922 0.87663 0.87433 0.87376 0.87496 0.87722 0.87946 0.88042 0.87961 0.87825
441.958 0.87822 0.87981 0.88155 0.88201 0.88111 0.87997 0.87970 0.88051 0.88168 0.88244
427.793 0.88281 0.88324 0.88351 0.88292 0.88211 0.88315 0.88680 0.88973 0.88874 0.88479
413.627 0.87966 0.87499 0.87235 0.87186 0.87254 0.87387 0.87575 0.87742 0.87820 0.87915
399.462 0.88283 0.88905 0.89205 0.88911 0.88471 0.88293 0.88411 0.88640 0.88829 0.88982
385.297 0.89153 0.89212 0.88982 0.88536 0.88016 0.87430 0.86835 0.86581 0.86832
##END= 
