##TITLE= 
##JCAMP-DX= 4.24
##DATA TYPE= INFRARED SPECTRUM
##ORIGIN= JASCO
##OWNER= 
##DATE= 22/04/13
##TIME= 10:55:47
##SPECTROMETER/DATA SYSTEM= 
##RESOLUTION= 
##DELTAX=   0.96423347
##XUNITS= 1/CM
##YUNITS= TRANSMITTANCE
##XFACTOR= 1.00000
##YFACTOR= 1E-005
##FIRSTX=   649.8934
##LASTX=  4000.6047
##NPOINTS=     3476
##FIRSTY=      0.68041
##MAXY=      0.92424
##MINY=      0.54177
##XYDATA= (X++(Y..Y))
649.8934 68042 67345 66694 66094 65513 64913 64278 63618 62952 62288 61619
660.4999 60950 60312 59754 59304 58943 58592 58094 57261 56075 54893 54194
671.1065 54177 54824 56096 57949 60264 62788 65200 67251 68845 70023 70871
681.7131 71467 71851 72025 71983 71758 71462 71299 71496 72195 73364 74796
692.3196 76189 77268 77850 77845 77198 75859 73831 71247 68433 65865 64039
702.9262 63310 63776 65274 67469 69989 72525 74859 76847 78395 79453 80035
713.5328 80238 80223 80162 80171 80261 80350 80318 80066 79573 78903 78170
724.1393 77465 76810 76159 75436 74580 73554 72352 70993 69530 68062 66734
734.7459 65703 65100 65003 65446 66438 67974 70014 72439 75042 77552 79714
745.3525 81364 82473 83127 83466 83621 83677 83675 83636 83575 83510 83449
755.9590 83389 83311 83199 83043 82849 82634 82412 82192 81968 81728 81457
766.5656 81143 80775 80350 79859 79290 78612 77783 76759 75511 74042 72388
777.1722 70588 68668 66643 64557 62553 60908 59996 60169 61600 64173 67491
787.7787 70996 74155 76616 78263 79176 79531 79504 79226 78783 78244 77680
798.3853 77171 76793 76598 76598 76763 77028 77308 77520 77599 77505 77223
808.9919 76757 76117 75315 74354 73239 71994 70690 69469 68534 68110 68372
819.5984 69375 71027 73106 75326 77425 79224 80642 81682 82393 82840 83083
830.2050 83177 83167 83091 82975 82837 82687 82530 82366 82191 81995 81765
840.8116 81492 81173 80821 80458 80118 79833 79629 79513 79476 79490 79517
851.4182 79513 79442 79276 79000 78612 78118 77530 76852 76081 75213 74268
862.0247 73320 72513 72034 72062 72689 73871 75431 77108 78645 79861 80686
872.6313 81150 81341 81358 81279 81153 81005 80845 80674 80493 80301 80098
883.2379 79881 79651 79399 79116 78793 78424 78020 77608 77229 76922 76712
893.8444 76595 76537 76483 76385 76211 75957 75639 75283 74911 74529 74136
904.4510 73722 73277 72797 72283 71740 71175 70592 69989 69364 68711 68029
915.0576 67320 66592 65858 65135 64441 63793 63210 62715 62332 62092 62027
925.6641 62166 62528 63113 63904 64863 65941 67081 68227 69324 70329 71207
936.2707 71935 72506 72932 73236 73453 73619 73763 73907 74058 74221 74403
946.8773 74615 74875 75201 75600 76065 76571 77081 77553 77950 78245 78421
957.4838 78477 78430 78312 78172 78062 78027 78083 78217 78389 78547 78648
968.0904 78669 78607 78475 78287 78057 77788 77480 77126 76723 76270 75787
978.6970 75318 74932 74712 74714 74946 75347 75807 76201 76433 76467 76323
989.3035 76050 75691 75268 74787 74256 73706 73186 72748 72418 72179 71981
999.9101 71756 71453 71047 70545 69968 69341 68683 68004 67311 66601 65866
1010.5167 65098 64292 63469 62679 61997 61507 61274 61325 61634 62132 62719
1021.1232 63288 63746 64030 64114 64009 63756 63408 63017 62626 62261 61935
1031.7299 61653 61419 61240 61128 61097 61157 61321 61592 61974 62464 63057
1042.3364 63739 64494 65304 66157 67054 68007 69030 70124 71264 72406 73492
1052.9430 74475 75327 76046 76649 77158 77596 77975 78301 78577 78807 78991
1063.5496 79135 79239 79304 79332 79324 79281 79207 79102 78962 78778 78546
1074.1561 78264 77940 77581 77187 76741 76212 75564 74775 73843 72791 71659
1084.7627 70500 69376 68366 67565 67076 66977 67302 68016 69024 70191 71373
1095.3693 72441 73303 73905 74228 74278 74077 73651 73031 72251 71349 70372
1105.9758 69362 68355 67366 66387 65402 64403 63406 62470 61686 61167 61016
1116.5824 61301 62030 63148 64543 66070 67580 68947 70086 70953 71547 71892
1127.1890 72025 71985 71809 71526 71158 70721 70228 69687 69114 68531 67978
1137.7955 67509 67183 67041 67087 67272 67502 67670 67689 67524 67188 66727
1148.4021 66181 65565 64870 64086 63231 62371 61618 61101 60943 61236 62032
1159.0087 63347 65168 67451 70113 73026 76022 78914 81533 83763 85560 86948
1169.6152 87993 88780 89380 89847 90209 90480 90668 90770 90782 90688 90466
1180.2218 90087 89535 88821 88008 87208 86563 86202 86196 86526 87092 87754
1190.8284 88383 88902 89296 89583 89795 89946 90036 90060 90016 89913 89766
1201.4349 89590 89396 89191 88977 88757 88528 88280 88003 87691 87354 87016
1212.0415 86713 86480 86338 86286 86301 86346 86385 86385 86327 86204 86017
1222.6481 85775 85488 85165 84810 84415 83965 83439 82819 82098 81277 80371
1233.2546 79408 78439 77545 76838 76439 76439 76851 77594 78498 79347 79939
1243.8612 80135 79883 79230 78301 77286 76404 75873 75851 76395 77436 78797
1254.4678 80250 81585 82663 83435 83918 84165 84227 84140 83927 83607 83208
1265.0743 82762 82302 81849 81406 80968 80532 80116 79769 79548 79500 79635
1275.6809 79915 80267 80608 80863 80988 80970 80816 80539 80151 79650 79022
1286.2875 78252 77340 76325 75290 74356 73645 73248 73196 73457 73941 74519
1296.8940 75047 75386 75435 75161 74615 73926 73257 72743 72434 72284 72177
1307.5006 71997 71692 71298 70917 70670 70640 70833 71177 71552 71830 71914
1318.1072 71751 71342 70730 69982 69159 68308 67453 66610 65788 64993 64227
1328.7137 63492 62795 62154 61601 61173 60912 60861 61078 61645 62645 64100
1339.3203 65892 67762 69422 70689 71535 72056 72426 72862 73563 74654 76134
1349.9269 77882 79713 81456 82992 84265 85259 85980 86445 86678 86705 86544
1360.5334 86207 85716 85117 84461 83770 83016 82150 81138 79992 78762 77504
1371.1400 76231 74908 73500 72033 70630 69451 68622 68206 68229 68691 69537
1381.7466 70643 71854 73058 74225 75391 76595 77812 78946 79909 80669 81243
1392.3531 81660 81936 82075 82082 81985 81826 81650 81486 81339 81201 81052
1402.9597 80876 80664 80424 80172 79927 79691 79445 79158 78801 78362 77849
1413.5663 77279 76659 75980 75236 74458 73742 73211 72918 72821 72844 72919
1424.1729 72990 73027 73042 73119 73394 73997 74943 76090 77216 78148 78816
1434.7794 79214 79362 79307 79141 78984 78937 79059 79380 79893 80550 81270
1445.3860 81960 82549 83002 83315 83513 83628 83691 83723 83739 83771 83893
1455.9926 84243 84922 85774 86493 86952 87191 87269 87211 87013 86686 86276
1466.5991 85845 85410 84933 84334 83533 82515 81468 80798 80821 81476 82477
1477.2057 83541 84460 85075 85272 85008 84327 83347 82209 81032 79928 79051
1487.8123 78649 78971 79986 81296 82492 83420 84124 84712 85277 85857 86407
1498.4188 86836 87096 87211 87224 87149 86962 86594 85935 84928 83793 82956
1509.0254 82504 82205 81866 81393 80730 79830 78680 77322 75853 74364 72878
1519.6320 71367 69827 68371 67207 66550 66553 67278 68638 70386 72231 73997
1530.2385 75697 77475 79453 81546 83443 84867 85778 86313 86643 86915 87230
1540.8451 87626 88060 88482 88876 89227 89505 89684 89759 89744 89663 89536
1551.4517 89375 89185 88969 88726 88443 88085 87600 86991 86422 86047 85829
1562.0582 85677 85556 85474 85453 85521 85686 85923 86165 86323 86347 86230
1572.6648 85966 85506 84759 83660 82301 80934 79737 78701 77740 76813 75954
1583.2714 75234 74702 74354 74149 74062 74104 74300 74656 75156 75787 76559
1593.8779 77508 78662 80006 81481 83003 84493 85894 87165 88282 89229 90002
1604.4845 90611 91077 91430 91701 91917 92096 92241 92343 92395 92391 92340
1615.0911 92269 92226 92247 92318 92390 92424 92407 92351 92284 92234 92219
1625.6976 92231 92253 92275 92294 92307 92305 92270 92182 92023 91804 91596
1636.3042 91508 91572 91712 91846 91929 91947 91894 91766 91563 91310 91086
1646.9108 90989 91036 91150 91239 91249 91166 91052 91055 91227 91455 91642
1657.5173 91753 91785 91742 91637 91508 91406 91358 91347 91334 91286 91192
1668.1239 91075 90981 90961 91019 91112 91197 91256 91295 91328 91358 91379
1678.7305 91376 91336 91250 91122 90984 90903 90939 91065 91214 91346 91457
1689.3370 91550 91622 91662 91650 91568 91408 91181 90928 90719 90618 90646
1699.9436 90760 90892 90996 91061 91103 91145 91204 91285 91375 91450 91491
1710.5502 91486 91427 91311 91138 90923 90714 90599 90653 90845 91071 91253
1721.1567 91369 91431 91456 91459 91441 91400 91328 91219 91078 90911 90737
1731.7633 90583 90496 90511 90614 90744 90849 90907 90919 90895 90851 90802
1742.3699 90759 90724 90685 90635 90569 90496 90446 90459 90558 90723 90900
1752.9764 91045 91139 91184 91191 91175 91150 91122 91100 91092 91106 91141
1763.5830 91186 91217 91216 91168 91069 90923 90750 90581 90461 90425 90472
1774.1896 90563 90649 90700 90708 90679 90629 90579 90546 90538 90557 90597
1784.7961 90653 90710 90754 90767 90736 90661 90560 90471 90444 90491 90579
1795.4027 90658 90691 90663 90586 90495 90437 90448 90523 90628 90721 90774
1806.0093 90777 90738 90672 90600 90544 90518 90523 90544 90561 90554 90515
1816.6158 90451 90375 90304 90246 90203 90169 90143 90127 90125 90130 90131
1827.2224 90123 90111 90118 90164 90246 90342 90420 90465 90477 90471 90462
1837.8290 90456 90446 90413 90342 90230 90090 89958 89876 89859 89889 89936
1848.4355 89974 89994 89995 89986 89974 89969 89974 89987 90003 90014 90017
1859.0421 90013 90006 90001 89992 89968 89914 89819 89689 89546 89434 89395
1869.6487 89437 89528 89624 89696 89734 89742 89729 89703 89670 89627 89572
1880.2552 89503 89425 89347 89277 89225 89194 89183 89192 89223 89275 89343
1890.8618 89416 89483 89537 89576 89607 89635 89665 89694 89714 89722 89716
1901.4684 89702 89686 89675 89666 89653 89630 89592 89544 89499 89469 89459
1912.0750 89462 89460 89434 89373 89274 89153 89030 88924 88844 88793 88768
1922.6815 88774 88810 88870 88937 88992 89020 89018 88989 88943 88890 88834
1933.2881 88781 88731 88684 88640 88594 88545 88491 88442 88411 88416 88461
1943.8947 88534 88609 88663 88684 88673 88637 88587 88528 88463 88394 88329
1954.5012 88278 88252 88251 88269 88292 88305 88299 88269 88217 88146 88065
1965.1078 87982 87911 87861 87836 87827 87823 87813 87791 87754 87702 87636
1975.7144 87556 87469 87389 87334 87316 87339 87393 87459 87521 87570 87604
1986.3209 87629 87650 87672 87698 87733 87783 87852 87940 88038 88132 88209
1996.9275 88266 88303 88327 88342 88351 88347 88323 88275 88200 88102 87993
2007.5341 87890 87812 87774 87774 87796 87816 87813 87782 87731 87682 87646
2018.1406 87622 87597 87558 87509 87468 87457 87487 87549 87618 87670 87692
2028.7472 87689 87673 87658 87646 87635 87621 87609 87606 87623 87658 87707
2039.3538 87760 87809 87856 87905 87959 88014 88060 88085 88091 88092 88110
2049.9604 88160 88244 88343 88434 88495 88521 88522 88518 88523 88545 88573
2060.5669 88593 88596 88579 88552 88528 88519 88527 88549 88576 88603 88626
2071.1736 88643 88653 88657 88655 88652 88655 88671 88701 88739 88775 88802
2081.7800 88820 88832 88847 88868 88894 88920 88942 88958 88974 88992 89012
2092.3867 89027 89029 89013 88982 88944 88910 88886 88873 88868 88865 88861
2102.9932 88853 88846 88842 88843 88850 88859 88867 88872 88870 88863 88854
2113.5999 88848 88851 88865 88892 88929 88971 89008 89033 89039 89023 88991
2124.2063 88951 88914 88888 88878 88882 88891 88898 88895 88875 88836 88777
2134.8130 88701 88617 88533 88462 88409 88378 88368 88373 88382 88383 88362
2145.4194 88309 88223 88113 87995 87886 87806 87772 87793 87861 87934 87942
2156.0261 87808 87491 87042 86601 86322 86283 86448 86707 86953 87123 87213
2166.6326 87255 87285 87323 87367 87407 87434 87449 87455 87454 87450 87450
2177.2393 87464 87496 87545 87599 87645 87675 87691 87701 87712 87729 87745
2187.8457 87754 87751 87737 87722 87718 87736 87782 87846 87915 87969 87997
2198.4524 87995 87970 87933 87895 87862 87839 87828 87832 87852 87885 87925
2209.0588 87962 87991 88005 88002 87984 87954 87920 87892 87880 87891 87924
2219.6655 87968 88008 88031 88035 88026 88016 88015 88024 88035 88038 88023
2230.2720 87991 87953 87922 87909 87920 87950 87989 88026 88052 88065 88069
2240.8787 88070 88075 88088 88110 88142 88184 88233 88285 88332 88367 88384
2251.4851 88384 88375 88365 88364 88375 88396 88422 88448 88469 88486 88500
2262.0918 88514 88529 88546 88564 88581 88595 88605 88611 88611 88610 88610
2272.6982 88613 88623 88640 88662 88686 88707 88724 88733 88735 88733 88731
2283.3049 88733 88744 88765 88793 88824 88850 88869 88878 88879 88878 88877
2293.9114 88880 88887 88894 88900 88900 88896 88889 88884 88882 88883 88883
2304.5181 88873 88852 88820 88781 88745 88717 88700 88694 88697 88707 88722
2315.1245 88741 88759 88771 88771 88757 88735 88714 88708 88724 88764 88817
2325.7312 88873 88922 88960 88990 89018 89050 89085 89121 89152 89175 89191
2336.3376 89201 89206 89201 89184 89152 89111 89073 89054 89066 89104 89150
2346.9443 89187 89203 89194 89162 89108 89041 88969 88906 88860 88829 88803
2357.5508 88775 88743 88715 88698 88699 88717 88746 88780 88815 88849 88885
2368.1575 88921 88959 88994 89025 89054 89084 89117 89155 89198 89246 89296
2378.7639 89349 89403 89455 89500 89534 89555 89565 89568 89570 89574 89581
2389.3706 89587 89590 89587 89578 89566 89552 89536 89518 89498 89480 89469
2399.9771 89468 89478 89492 89503 89502 89487 89461 89431 89407 89392 89388
2410.5837 89390 89394 89392 89385 89374 89361 89349 89338 89326 89312 89295
2421.1902 89276 89260 89250 89247 89252 89264 89279 89295 89306 89312 89312
2431.7969 89306 89298 89294 89294 89298 89304 89306 89301 89290 89276 89265
2442.4033 89259 89260 89265 89269 89268 89260 89245 89228 89209 89192 89175
2453.0100 89161 89149 89141 89138 89138 89137 89132 89122 89108 89092 89080
2463.6165 89072 89070 89071 89075 89082 89090 89099 89105 89108 89106 89101
2474.2231 89099 89101 89104 89105 89097 89078 89052 89025 89004 88993 88989
2484.8296 88990 88989 88987 88982 88977 88976 88980 88992 89009 89030 89049
2495.4363 89063 89069 89069 89067 89068 89075 89087 89100 89109 89109 89101
2506.0427 89089 89078 89072 89073 89077 89083 89087 89088 89087 89082 89072
2516.6494 89058 89044 89036 89039 89053 89074 89095 89108 89110 89103 89091
2527.2559 89077 89064 89054 89046 89040 89035 89031 89027 89024 89021 89017
2537.8625 89013 89010 89009 89009 89012 89017 89022 89028 89032 89036 89039
2548.4690 89041 89043 89046 89053 89067 89088 89112 89135 89150 89155 89152
2559.0757 89144 89137 89130 89125 89118 89110 89104 89102 89107 89115 89124
2569.6821 89128 89127 89121 89113 89103 89093 89082 89069 89056 89044 89034
2580.2888 89026 89017 89005 88989 88972 88955 88942 88935 88936 88943 88954
2590.8953 88967 88982 88999 89021 89049 89080 89111 89134 89146 89145 89133
2601.5020 89118 89105 89099 89101 89109 89120 89130 89139 89148 89158 89170
2612.1084 89184 89199 89213 89224 89233 89240 89246 89252 89257 89262 89266
2622.7151 89272 89279 89287 89296 89304 89313 89322 89332 89344 89357 89372
2633.3215 89388 89404 89421 89438 89455 89471 89487 89503 89520 89538 89560
2643.9282 89585 89612 89639 89664 89683 89699 89712 89725 89740 89758 89777
2654.5347 89793 89804 89809 89811 89811 89815 89822 89831 89841 89845 89842
2665.1414 89832 89816 89800 89787 89779 89776 89775 89774 89771 89766 89761
2675.7478 89757 89756 89756 89758 89758 89756 89753 89748 89744 89742 89740
2686.3545 89738 89737 89737 89740 89745 89753 89762 89770 89776 89777 89775
2696.9609 89770 89765 89763 89765 89771 89781 89791 89798 89799 89795 89786
2707.5676 89777 89769 89765 89763 89761 89758 89750 89737 89721 89702 89682
2718.1741 89662 89642 89622 89603 89586 89571 89558 89548 89538 89527 89514
2728.7808 89498 89481 89466 89456 89452 89456 89466 89478 89490 89502 89515
2739.3872 89529 89543 89554 89559 89557 89550 89545 89544 89551 89560 89567
2749.9939 89569 89563 89551 89538 89527 89522 89522 89526 89532 89539 89544
2760.6003 89547 89550 89551 89553 89556 89562 89570 89580 89590 89597 89600
2771.2070 89598 89593 89588 89585 89582 89579 89573 89565 89557 89551 89548
2781.8135 89548 89548 89546 89542 89537 89531 89524 89515 89504 89488 89470
2792.4202 89450 89432 89421 89417 89421 89429 89436 89439 89434 89421 89403
2803.0266 89383 89365 89351 89344 89343 89344 89345 89344 89337 89325 89309
2813.6333 89290 89270 89249 89228 89206 89185 89165 89149 89138 89132 89131
2824.2397 89132 89133 89129 89121 89112 89103 89097 89095 89096 89097 89098
2834.8464 89100 89104 89109 89114 89117 89115 89108 89099 89090 89085 89083
2845.4529 89080 89072 89056 89029 88996 88960 88924 88889 88854 88817 88778
2856.0596 88735 88691 88646 88598 88545 88486 88421 88352 88286 88230 88191
2866.6660 88175 88185 88221 88278 88351 88429 88504 88572 88632 88687 88739
2877.2727 88784 88818 88832 88825 88801 88770 88741 88720 88707 88699 88691
2887.8792 88680 88667 88652 88637 88622 88606 88591 88574 88553 88522 88477
2898.4858 88419 88350 88277 88205 88138 88074 88009 87941 87870 87803 87745
2909.0923 87703 87680 87679 87695 87724 87760 87795 87825 87844 87849 87841
2919.6990 87819 87783 87732 87668 87595 87518 87445 87384 87340 87318 87320
2930.3054 87345 87388 87445 87512 87584 87662 87748 87843 87945 88052 88161
2940.9121 88266 88363 88449 88518 88569 88597 88603 88589 88559 88517 88469
2951.5186 88417 88362 88306 88252 88203 88162 88133 88117 88112 88115 88120
2962.1252 88122 88115 88095 88058 87998 87914 87804 87669 87509 87323 87109
2972.7317 86866 86603 86341 86111 85948 85882 85925 86071 86296 86566 86845
2983.3384 87106 87334 87520 87665 87770 87836 87863 87850 87799 87712 87596
2993.9448 87464 87331 87213 87122 87066 87049 87073 87138 87243 87385 87559
3004.5515 87752 87953 88149 88332 88499 88648 88780 88893 88985 89054 89102
3015.1580 89131 89146 89152 89150 89141 89124 89099 89065 89022 88969 88907
3025.7646 88835 88752 88660 88560 88458 88364 88289 88242 88226 88237 88267
3036.3711 88309 88355 88405 88459 88514 88566 88607 88626 88618 88581 88518
3046.9778 88440 88358 88282 88218 88170 88141 88131 88144 88178 88230 88291
3057.5842 88351 88398 88426 88433 88424 88409 88399 88409 88449 88522 88623
3068.1909 88742 88867 88986 89090 89173 89236 89276 89299 89307 89304 89294
3078.7974 89280 89262 89243 89224 89205 89186 89168 89152 89141 89139 89147
3089.4041 89162 89181 89197 89207 89212 89216 89220 89224 89225 89221 89210
3100.0105 89195 89179 89167 89158 89152 89147 89142 89136 89129 89124 89117
3110.6172 89111 89104 89097 89092 89088 89085 89082 89079 89074 89066 89054
3121.2236 89037 89015 88992 88971 88954 88942 88931 88917 88896 88867 88835
3131.8303 88805 88781 88768 88764 88764 88763 88753 88731 88695 88648 88595
3142.4368 88541 88493 88450 88414 88381 88351 88323 88299 88277 88255 88231
3153.0435 88198 88154 88094 88020 87936 87848 87763 87686 87617 87556 87499
3163.6499 87442 87384 87322 87252 87174 87084 86985 86880 86773 86668 86563
3174.2566 86457 86345 86225 86098 85966 85834 85702 85574 85450 85332 85223
3184.8630 85125 85040 84971 84917 84879 84860 84858 84875 84906 84945 84986
3195.4697 85026 85064 85100 85133 85160 85180 85186 85179 85159 85127 85085
3206.0762 85033 84973 84907 84835 84760 84686 84615 84548 84486 84428 84371
3216.6829 84318 84273 84245 84240 84267 84325 84414 84531 84673 84837 85019
3227.2893 85214 85418 85626 85832 86032 86223 86409 86599 86808 87040 87287
3237.8960 87525 87721 87853 87919 87936 87934 87937 87954 87982 88011 88036
3248.5024 88056 88078 88104 88137 88176 88223 88282 88358 88451 88560 88679
3259.1091 88803 88928 89051 89173 89292 89408 89519 89623 89720 89806 89881
3269.7156 89943 89991 90029 90060 90092 90129 90173 90222 90270 90312 90346
3280.3223 90372 90395 90420 90449 90483 90517 90545 90564 90572 90575 90576
3290.9287 90580 90589 90599 90607 90613 90619 90632 90652 90679 90707 90728
3301.5354 90738 90739 90735 90731 90731 90734 90737 90737 90734 90728 90719
3312.1418 90709 90700 90694 90694 90703 90719 90740 90758 90769 90768 90757
3322.7485 90741 90726 90718 90717 90720 90724 90727 90725 90720 90714 90708
3333.3550 90703 90698 90695 90696 90700 90707 90718 90728 90736 90737 90731
3343.9617 90717 90700 90685 90675 90676 90684 90696 90707 90713 90714 90711
3354.5681 90708 90704 90700 90694 90686 90677 90670 90665 90662 90661 90661
3365.1748 90665 90674 90688 90704 90715 90716 90705 90685 90666 90652 90646
3375.7813 90648 90651 90654 90653 90648 90639 90626 90613 90602 90599 90606
3386.3879 90621 90638 90649 90649 90639 90623 90609 90600 90598 90600 90603
3396.9944 90606 90610 90614 90618 90619 90620 90620 90623 90629 90639 90649
3407.6011 90654 90648 90632 90609 90587 90574 90575 90588 90603 90611 90606
3418.2075 90588 90563 90541 90530 90532 90546 90567 90589 90606 90616 90617
3428.8142 90609 90598 90589 90587 90595 90608 90623 90633 90635 90626 90609
3439.4207 90587 90562 90537 90513 90488 90465 90447 90442 90455 90485 90525
3450.0273 90562 90587 90597 90595 90588 90582 90578 90574 90566 90555 90542
3460.6338 90532 90528 90530 90536 90542 90548 90555 90563 90570 90572 90566
3471.2405 90550 90531 90515 90508 90511 90517 90516 90501 90474 90444 90422
3481.8469 90418 90429 90447 90461 90467 90463 90454 90447 90444 90444 90443
3492.4536 90441 90438 90440 90449 90462 90471 90464 90434 90385 90333 90297
3503.0601 90292 90314 90343 90359 90354 90336 90324 90337 90379 90436 90488
3513.6667 90519 90526 90515 90495 90470 90439 90397 90342 90280 90221 90174
3524.2732 90147 90139 90148 90175 90218 90274 90332 90379 90403 90399 90377
3534.8799 90352 90343 90358 90389 90418 90422 90386 90308 90204 90101 90032
3545.4863 90021 90061 90123 90176 90204 90210 90211 90227 90265 90313 90353
3556.0930 90369 90357 90325 90283 90239 90185 90109 89997 89845 89677 89549
3566.6995 89529 89638 89827 90021 90171 90260 90297 90294 90271 90243 90217
3577.3062 90200 90191 90190 90193 90189 90163 90100 89993 89856 89732 89683
3587.9126 89737 89855 89968 90021 90000 89923 89833 89784 89802 89876 89965
3598.5193 90032 90063 90063 90050 90030 90000 89949 89874 89787 89709 89660
3609.1257 89639 89631 89620 89606 89596 89597 89601 89593 89563 89526 89520
3619.7324 89577 89693 89825 89925 89963 89923 89804 89622 89432 89327 89364
3630.3391 89505 89668 89804 89901 89968 90017 90056 90087 90105 90108 90095
3640.9456 90070 90032 89978 89890 89749 89530 89237 88936 88785 88888 89157
3651.5522 89436 89641 89760 89812 89830 89851 89897 89967 90043 90106 90145
3662.1587 90160 90150 90112 90042 89932 89778 89600 89440 89341 89305 89287
3672.7654 89243 89165 89091 89094 89209 89395 89585 89741 89854 89927 89967
3683.3718 89973 89943 89866 89738 89567 89401 89319 89368 89518 89697 89856
3693.9785 89975 90051 90087 90087 90055 89998 89929 89873 89855 89881 89932
3704.5850 89976 89982 89930 89812 89637 89447 89318 89317 89442 89620 89783
3715.1917 89895 89949 89947 89900 89822 89732 89648 89582 89543 89538 89568
3725.7981 89626 89695 89749 89765 89723 89611 89423 89179 88940 88807 88846
3736.4048 89024 89239 89412 89513 89536 89487 89380 89249 89148 89111 89116
3747.0112 89114 89071 88995 88943 88996 89174 89402 89597 89722 89778 89787
3757.6179 89781 89796 89847 89922 89994 90044 90068 90069 90055 90032 90007
3768.2244 89989 89994 90035 90111 90204 90284 90330 90330 90287 90222 90161
3778.8311 90132 90138 90160 90180 90188 90193 90209 90245 90299 90360 90414
3789.4375 90453 90473 90470 90439 90376 90285 90175 90062 89954 89854 89762
3800.0442 89692 89665 89693 89759 89833 89899 89959 90032 90129 90240 90337
3810.6506 90396 90404 90359 90267 90144 90012 89885 89762 89645 89551 89519
3821.2573 89575 89699 89839 89956 90036 90088 90124 90149 90163 90159 90137
3831.8638 90099 90049 89984 89897 89783 89653 89543 89498 89538 89646 89788
3842.4705 89934 90071 90187 90272 90312 90295 90216 90069 89860 89609 89389
3853.0769 89317 89437 89654 89858 90010 90106 90148 90136 90076 89987 89907
3863.6836 89872 89888 89927 89953 89939 89884 89807 89750 89751 89825 89953
3874.2900 90096 90217 90291 90304 90258 90174 90082 90009 89968 89959 89977
3884.8967 90024 90094 90170 90227 90246 90226 90186 90162 90178 90225 90269
3895.5032 90280 90242 90152 90026 89890 89775 89701 89683 89732 89850 90014
3906.1099 90192 90352 90475 90559 90605 90621 90612 90580 90524 90449 90366
3916.7163 90298 90265 90272 90300 90326 90333 90323 90310 90313 90340 90375
3927.3230 90396 90385 90339 90278 90236 90241 90301 90396 90496 90576 90621
3937.9294 90626 90596 90543 90487 90447 90432 90439 90450 90448 90429 90402
3948.5361 90384 90391 90424 90471 90515 90544 90557 90558 90554 90547 90541
3959.1426 90535 90532 90536 90550 90574 90601 90621 90628 90618 90594 90561
3969.7493 90529 90504 90490 90490 90500 90519 90540 90560 90576 90589 90599
3980.3557 90608 90617 90627 90635 90638 90636 90629 90618 90607 90596 90589
3990.9624 90584 90583 90584 90586 90589 90593 90598 90607 90619 90633 90647
##END= 
