##TITLE= 
##JCAMP-DX= 4.24
##DATA TYPE= INFRARED SPECTRUM
##ORIGIN= JASCO
##OWNER= 
##DATE= 22/04/13
##TIME= 10:33:27
##SPECTROMETER/DATA SYSTEM= 
##RESOLUTION= 
##DELTAX=   0.96423347
##XUNITS= 1/CM
##YUNITS= TRANSMITTANCE
##XFACTOR= 1.00000
##YFACTOR= 1E-005
##FIRSTX=   649.8934
##LASTX=  4000.6047
##NPOINTS=     3476
##FIRSTY=      0.82506
##MAXY=      0.95482
##MINY=      0.41788
##XYDATA= (X++(Y..Y))
649.8934 82506 82139 81728 81284 80809 80250 79476 78307 76632 74562 72513
660.4999 71109 70852 71814 73665 75944 78274 80367 81940 82733 82787 82483
671.1065 82163 81934 81780 81662 81545 81389 81140 80750 80208 79568 78944
681.7131 78473 78245 78252 78387 78503 78467 78214 77742 77088 76294 75380
692.3196 74328 73080 71544 69646 67419 65089 63085 61937 62072 63623 66337
702.9262 69652 72897 75521 77259 78142 78386 78236 77852 77286 76535 75610
713.5328 74580 73552 72604 71718 70750 69460 67593 64987 61674 57956 54356
724.1393 51451 49675 49187 49851 51321 53191 55171 57214 59493 62237 65514
734.7459 69071 72355 74691 75547 74789 72790 70362 68501 68034 69316 72100
745.3525 75665 79117 81748 83246 83690 83356 82497 81221 79539 77502 75329
755.9590 73403 72156 71893 72658 74225 76193 78133 79720 80807 81404 81628
766.5656 81629 81536 81432 81349 81285 81212 81092 80886 80558 80076 79409
777.1722 78522 77378 75943 74198 72145 69814 67251 64516 61679 58834 56122
787.7787 53760 52042 51301 51820 53735 56943 61102 65692 70162 74063 77151
798.3853 79395 80922 81925 82582 83012 83281 83422 83463 83435 83376 83321
808.9919 83293 83301 83341 83400 83461 83507 83524 83503 83442 83341 83204
819.5984 83029 82815 82551 82225 81819 81315 80699 79967 79134 78237 77325
830.2050 76442 75608 74818 74058 73340 72731 72358 72370 72878 73890 75295
840.8116 76884 78424 79723 80686 81306 81636 81748 81695 81509 81200 80770
851.4182 80215 79528 78700 77728 76630 75458 74297 73252 72413 71823 71469
862.0247 71294 71243 71304 71535 72039 72912 74185 75791 77578 79353 80946
872.6313 82254 83251 83972 84481 84842 85104 85295 85432 85525 85580 85609
883.2379 85619 85618 85607 85585 85552 85508 85458 85403 85342 85268 85173
893.8444 85056 84925 84797 84696 84641 84638 84677 84735 84785 84804 84782
904.4510 84726 84650 84575 84514 84472 84443 84418 84389 84349 84297 84232
915.0576 84155 84070 83978 83886 83798 83718 83644 83571 83493 83405 83308
925.6641 83205 83103 83007 82919 82837 82756 82675 82594 82513 82431 82347
936.2707 82252 82133 81972 81748 81442 81049 80595 80139 79765 79560 79570
946.8773 79786 80139 80527 80854 81064 81145 81123 81035 80914 80779 80633
957.4838 80479 80315 80143 79963 79770 79560 79326 79061 78751 78374 77893
968.0904 77268 76479 75556 74595 73750 73193 73054 73372 74069 74980 75902
978.6970 76664 77169 77401 77401 77230 76937 76564 76143 75698 75206 74570
989.3035 73629 72233 70365 68228 66220 64785 64195 64409 65069 65669 65780
999.9101 65227 64117 62754 61486 60589 60214 60387 61041 62043 63213 64342
1010.5167 65215 65656 65589 65093 64439 64047 64363 65697 68070 71173 74466
1021.1232 77385 79541 80822 81350 81321 80873 80034 78799 77257 75664 74395
1031.7299 73789 73981 74826 75961 76973 77565 77642 77286 76665 75937 75212
1042.3364 74550 73981 73509 73102 72688 72182 71528 70748 69951 69294 68922
1052.9430 68897 69173 69612 70042 70319 70367 70184 69816 69323 68749 68121
1063.5496 67450 66744 66011 65257 64483 63687 62863 62002 61097 60145 59149
1074.1561 58120 57069 55999 54897 53729 52461 51074 49577 48014 46448 44963
1084.7627 43655 42629 41986 41788 42036 42656 43537 44575 45728 47020 48504
1095.3693 50205 52077 54003 55829 57417 58693 59665 60433 61175 62110 63453
1105.9758 65346 67799 70665 73668 76479 78814 80504 81529 81986 82040 81865
1116.5824 81607 81372 81229 81223 81382 81724 82251 82949 83790 84729 85712
1127.1890 86682 87585 88379 89039 89558 89950 90234 90436 90573 90656 90688
1137.7955 90670 90603 90489 90327 90109 89820 89450 89006 88519 88024 87543
1148.4021 87060 86529 85908 85202 84486 83889 83544 83531 83840 84381 85028
1159.0087 85663 86211 86642 86962 87184 87324 87395 87406 87368 87289 87177
1169.6152 87037 86873 86686 86478 86249 86002 85739 85464 85180 84888 84586
1180.2218 84274 83950 83612 83257 82876 82458 81994 81476 80886 80175 79268
1190.8284 78079 76570 74810 73004 71462 70504 70345 71006 72310 73947 75584
1201.4349 76967 77966 78566 78824 78823 78639 78331 77943 77505 77036 76545
1212.0415 76036 75508 74958 74384 73782 73150 72488 71800 71091 70368 69632
1222.6481 68881 68105 67287 66404 65431 64341 63117 61760 60299 58803 57385
1233.2546 56184 55338 54942 55013 55480 56204 57020 57782 58382 58751 58836
1243.8612 58589 57973 56993 55724 54328 53035 52100 51740 52079 53115 54719
1254.4678 56670 58712 60617 62228 63476 64372 64970 65325 65461 65365 65021
1265.0743 64465 63825 63315 63174 63573 64522 65844 67226 68329 68905 68860
1275.6809 68247 67202 65882 64413 62878 61324 59779 58274 56849 55563 54493
1286.2875 53733 53379 53504 54139 55260 56796 58648 60709 62881 65084 67260
1296.8940 69378 71437 73452 75440 77401 79311 81124 82787 84254 85497 86510
1307.5006 87305 87903 88329 88609 88762 88807 88760 88633 88433 88166 87837
1318.1072 87451 87009 86503 85916 85235 84475 83681 82930 82284 81755 81265
1328.7137 80669 79810 78607 77111 75497 73997 72806 72012 71570 71317 71019
1339.3203 70471 69598 68497 67368 66442 65941 66074 67005 68793 71335 74365
1349.9269 77526 80479 82984 84920 86265 87056 87367 87292 86912 86264 85321
1360.5334 84021 82331 80337 78232 76189 74253 72367 70467 68564 66763 65233
1371.1400 64157 63713 64052 65232 67137 69489 71994 74461 76799 78945 80819
1381.7466 82345 83499 84311 84834 85098 85106 84867 84428 83851 83160 82327
1392.3531 81304 80074 78729 77493 76665 76469 76949 77973 79325 80805 82292
1402.9597 83731 85083 86285 87255 87941 88358 88557 88574 88408 88037 87457
1413.5663 86675 85661 84297 82402 79898 77108 74804 73722 74077 75625 77911
1424.1729 80399 82539 83892 84234 83594 82260 80732 79555 79106 79504 80696
1434.7794 82507 84584 86376 87423 87699 87504 87149 86809 86556 86420 86428
1445.3860 86613 86999 87575 88288 89055 89800 90486 91107 91673 92192 92669
1455.9926 93091 93419 93627 93738 93796 93816 93787 93679 93461 93134 92754
1466.5991 92392 92068 91736 91301 90640 89633 88280 86814 85572 84716 84207
1477.2057 83969 83976 84224 84679 85246 85780 86143 86267 86172 85965 85827
1487.8123 86008 86705 87846 89088 90122 90859 91346 91656 91841 91926 91929
1498.4188 91872 91786 91691 91594 91481 91329 91090 90688 90041 89202 88408
1509.0254 87790 87272 86744 86131 85371 84401 83174 81699 80050 78339 76665
1519.6320 75128 73869 73082 72934 73516 74840 76829 79252 81746 83974 85785
1530.2385 87222 88434 89551 90590 91455 92064 92435 92648 92787 92908 93032
1540.8451 93157 93274 93389 93500 93594 93654 93672 93650 93600 93529 93438
1551.4517 93325 93196 93063 92933 92796 92611 92295 91796 91219 90724 90286
1562.0582 89792 89183 88472 87737 87107 86718 86634 86760 86860 86726 86295
1572.6648 85599 84658 83459 82018 80481 79081 77937 77022 76292 75738 75354
1583.2714 75059 74689 74115 73390 72821 72866 73915 76069 79068 82412 85572
1593.8779 88170 90065 91333 92165 92750 93206 93580 93883 94115 94284 94399
1604.4845 94469 94501 94498 94462 94396 94303 94190 94070 93949 93831 93716
1615.0911 93608 93521 93469 93448 93434 93404 93343 93246 93120 92987 92867
1625.6976 92760 92654 92532 92393 92249 92113 91983 91840 91649 91378 91043
1636.3042 90733 90532 90429 90361 90285 90186 90063 89917 89741 89522 89273
1646.9108 89047 88899 88826 88776 88673 88420 87938 87322 86817 86495 86270
1657.5173 86061 85839 85607 85392 85235 85163 85163 85191 85194 85132 84972
1668.1239 84691 84304 83871 83461 83089 82716 82288 81763 81139 80459 79780
1678.7305 79133 78503 77818 76935 75665 73953 72108 70533 69288 68182 67044
1689.3370 65825 64572 63353 62188 61035 59814 58488 57137 55968 55214 54963
1699.9436 55105 55455 55933 56616 57670 59263 61458 64129 66997 69806 72439
1710.5502 74886 77144 79172 80916 82369 83620 84811 85978 86982 87693 88115
1721.1567 88329 88408 88392 88300 88144 87938 87697 87432 87147 86838 86488
1731.7633 86065 85550 84983 84463 84053 83724 83391 82965 82380 81614 80694
1742.3699 79666 78553 77351 76042 74606 72999 71144 68988 66611 64250 62168
1752.9764 60529 59416 58888 59008 59829 61375 63669 66722 70464 74616 78702
1763.5830 82264 85092 87251 88927 90285 91398 92271 92894 93308 93602 93851
1774.1896 94075 94258 94395 94499 94587 94672 94755 94831 94901 94969 95036
1784.7961 95102 95162 95210 95245 95265 95266 95243 95204 95169 95163 95191
1795.4027 95243 95301 95354 95394 95422 95440 95453 95463 95473 95480 95482
1806.0093 95477 95458 95425 95378 95325 95277 95246 95237 95243 95254 95260
1816.6158 95254 95239 95222 95212 95212 95220 95228 95235 95237 95234 95224
1827.2224 95204 95175 95144 95126 95129 95151 95180 95203 95213 95211 95202
1837.8290 95194 95191 95189 95179 95152 95103 95040 94985 94954 94952 94968
1848.4355 94988 95001 95001 94990 94971 94949 94927 94906 94884 94857 94824
1859.0421 94788 94755 94731 94721 94722 94727 94724 94706 94670 94627 94594
1869.6487 94587 94610 94651 94694 94726 94742 94739 94720 94693 94663 94632
1880.2552 94601 94567 94530 94492 94454 94419 94390 94367 94353 94352 94367
1890.8618 94395 94429 94460 94480 94484 94475 94459 94438 94416 94391 94362
1901.4684 94330 94301 94277 94261 94247 94229 94200 94157 94106 94055 94010
1912.0750 93975 93944 93910 93868 93816 93760 93712 93680 93669 93676 93696
1922.6815 93723 93753 93784 93814 93841 93861 93871 93866 93847 93815 93773
1933.2881 93727 93679 93632 93585 93539 93492 93443 93391 93335 93276 93215
1943.8947 93153 93092 93033 92981 92938 92907 92887 92872 92855 92827 92788
1954.5012 92743 92701 92668 92645 92626 92603 92570 92525 92473 92419 92368
1965.1078 92326 92294 92273 92262 92258 92255 92252 92243 92222 92179 92107
1975.7144 92007 91894 91796 91740 91742 91798 91889 91995 92102 92205 92305
1986.3209 92404 92497 92573 92622 92640 92636 92624 92618 92624 92639 92654
1996.9275 92665 92670 92675 92684 92697 92704 92694 92652 92573 92459 92326
2007.5341 92192 92077 91993 91941 91916 91908 91910 91920 91943 91984 92046
2018.1406 92120 92190 92237 92248 92229 92199 92183 92199 92247 92312 92369
2028.7472 92402 92406 92387 92359 92330 92306 92291 92288 92301 92332 92376
2039.3538 92426 92474 92522 92571 92625 92682 92731 92763 92776 92778 92786
2049.9604 92812 92859 92914 92962 92990 92997 92993 92995 93014 93051 93092
2060.5669 93120 93119 93086 93027 92962 92910 92881 92880 92900 92932 92967
2071.1736 92998 93025 93047 93067 93090 93117 93151 93189 93227 93260 93284
2081.7800 93299 93311 93324 93343 93367 93392 93415 93431 93439 93441 93437
2092.3867 93425 93404 93372 93331 93287 93249 93222 93205 93193 93179 93156
2102.9932 93127 93098 93076 93064 93061 93061 93059 93054 93049 93047 93051
2113.5999 93064 93084 93110 93137 93165 93188 93203 93206 93201 93192 93185
2124.2063 93187 93198 93217 93240 93259 93273 93279 93275 93259 93226 93174
2134.8130 93099 93008 92909 92817 92745 92697 92672 92660 92652 92640 92619
2145.4194 92588 92545 92488 92412 92321 92221 92126 92050 91999 91963 91922
2156.0261 91847 91719 91545 91363 91216 91136 91122 91156 91217 91291 91373
2166.6326 91463 91557 91652 91741 91818 91878 91917 91931 91921 91895 91865
2177.2393 91843 91838 91845 91854 91855 91843 91827 91818 91824 91847 91877
2187.8457 91904 91919 91923 91922 91926 91942 91971 92010 92052 92092 92128
2198.4524 92160 92186 92203 92207 92200 92185 92170 92164 92174 92197 92228
2209.0588 92261 92289 92312 92330 92343 92351 92353 92350 92349 92355 92371
2219.6655 92394 92417 92433 92441 92445 92451 92465 92483 92500 92507 92504
2230.2720 92494 92484 92482 92490 92507 92528 92548 92566 92582 92597 92610
2240.8787 92621 92628 92630 92631 92637 92652 92680 92716 92755 92788 92811
2251.4851 92822 92825 92825 92826 92832 92844 92865 92890 92916 92938 92953
2262.0918 92962 92968 92975 92982 92989 92995 92999 93005 93019 93041 93068
2272.6982 93091 93103 93102 93091 93079 93070 93069 93072 93077 93082 93086
2283.3049 93092 93103 93120 93141 93164 93187 93207 93226 93245 93265 93286
2293.9114 93309 93331 93349 93362 93367 93366 93362 93356 93348 93339 93326
2304.5181 93307 93285 93262 93244 93234 93233 93239 93247 93253 93255 93253
2315.1245 93249 93246 93243 93238 93230 93219 93212 93221 93253 93311 93386
2325.7312 93465 93533 93582 93610 93623 93626 93625 93623 93616 93606 93595
2336.3376 93585 93581 93582 93586 93585 93574 93549 93515 93484 93467 93470
2346.9443 93488 93513 93534 93543 93534 93503 93452 93389 93329 93280 93245
2357.5508 93223 93209 93202 93202 93212 93229 93254 93282 93310 93335 93356
2368.1575 93375 93394 93411 93427 93439 93447 93452 93455 93459 93465 93473
2378.7639 93482 93492 93501 93506 93505 93498 93485 93470 93455 93443 93434
2389.3706 93428 93424 93419 93416 93415 93417 93423 93432 93444 93455 93468
2399.9771 93481 93495 93507 93515 93515 93508 93495 93480 93467 93457 93448
2410.5837 93438 93427 93416 93408 93405 93407 93411 93415 93416 93414 93406
2421.1902 93394 93378 93359 93342 93331 93326 93328 93333 93336 93334 93325
2431.7969 93310 93296 93285 93282 93284 93285 93280 93268 93250 93233 93222
2442.4033 93219 93223 93229 93232 93231 93226 93219 93211 93201 93189 93176
2453.0100 93163 93154 93149 93148 93151 93156 93160 93164 93166 93166 93164
2463.6165 93157 93149 93139 93130 93123 93118 93115 93113 93111 93110 93110
2474.2231 93112 93114 93113 93108 93097 93081 93061 93039 93016 92994 92974
2484.8296 92956 92941 92931 92924 92921 92921 92925 92930 92934 92935 92932
2495.4363 92924 92914 92906 92904 92909 92921 92938 92957 92974 92987 92994
2506.0427 92998 93001 93008 93018 93030 93041 93047 93049 93046 93042 93040
2516.6494 93041 93045 93051 93055 93058 93058 93057 93052 93041 93023 92996
2527.2559 92964 92933 92911 92900 92899 92905 92911 92916 92920 92924 92928
2537.8625 92933 92938 92943 92948 92956 92967 92980 92994 93007 93019 93029
2548.4690 93036 93041 93044 93046 93046 93046 93045 93044 93040 93036 93032
2559.0757 93028 93025 93020 93012 93002 92991 92980 92973 92972 92975 92979
2569.6821 92983 92984 92981 92974 92965 92957 92951 92949 92951 92958 92968
2580.2888 92978 92985 92988 92985 92979 92971 92965 92963 92969 92980 92995
2590.8953 93007 93016 93021 93025 93034 93050 93070 93090 93101 93101 93091
2601.5020 93079 93070 93070 93077 93090 93104 93115 93121 93124 93122 93117
2612.1084 93111 93106 93102 93102 93104 93109 93117 93129 93144 93162 93181
2622.7151 93201 93221 93240 93259 93279 93302 93325 93346 93365 93380 93393
2633.3215 93405 93418 93432 93443 93450 93450 93444 93434 93425 93420 93423
2643.9282 93434 93452 93475 93499 93520 93536 93547 93555 93564 93574 93587
2654.5347 93600 93610 93618 93624 93628 93631 93636 93641 93645 93646 93644
2665.1414 93638 93628 93614 93599 93586 93578 93576 93581 93590 93600 93610
2675.7478 93621 93632 93644 93656 93664 93667 93663 93653 93642 93632 93623
2686.3545 93616 93611 93609 93609 93613 93618 93623 93626 93626 93625 93625
2696.9609 93628 93635 93644 93653 93659 93662 93662 93657 93650 93640 93629
2707.5676 93618 93606 93595 93583 93571 93558 93547 93536 93526 93516 93506
2718.1741 93496 93486 93480 93476 93476 93477 93477 93472 93460 93440 93413
2728.7808 93382 93352 93327 93312 93309 93319 93338 93361 93382 93399 93410
2739.3872 93417 93424 93431 93439 93448 93459 93473 93491 93513 93533 93549
2749.9939 93557 93556 93548 93538 93528 93522 93519 93519 93521 93523 93523
2760.6003 93521 93515 93506 93495 93484 93475 93468 93464 93460 93456 93451
2771.2070 93444 93437 93430 93424 93418 93412 93405 93401 93399 93402 93408
2781.8135 93415 93422 93429 93436 93448 93467 93489 93511 93526 93528 93519
2792.4202 93500 93478 93459 93447 93440 93436 93432 93424 93410 93392 93370
2803.0266 93346 93319 93292 93267 93246 93230 93219 93210 93204 93198 93192
2813.6333 93187 93184 93182 93180 93178 93175 93173 93175 93182 93196 93214
2824.2397 93235 93254 93270 93282 93290 93294 93295 93293 93287 93278 93267
2834.8464 93255 93243 93231 93215 93192 93157 93109 93052 92992 92936 92885
2845.4529 92841 92801 92763 92727 92697 92676 92667 92667 92673 92681 92688
2856.0596 92696 92704 92712 92718 92721 92721 92719 92717 92716 92711 92701
2866.6660 92681 92654 92622 92590 92562 92539 92520 92508 92503 92508 92525
2877.2727 92550 92580 92610 92638 92662 92683 92699 92709 92712 92706 92692
2887.8792 92670 92642 92608 92569 92524 92475 92423 92368 92308 92239 92154
2898.4858 92048 91914 91750 91560 91358 91167 91019 90941 90951 91046 91205
2909.0923 91393 91574 91722 91823 91877 91892 91878 91846 91801 91749 91695
2919.6990 91641 91590 91544 91507 91485 91484 91507 91553 91614 91681 91741
2930.3054 91786 91804 91791 91742 91657 91549 91436 91349 91313 91348 91453
2940.9121 91612 91798 91982 92142 92265 92348 92395 92412 92407 92387 92355
2951.5186 92313 92260 92193 92111 92015 91910 91803 91703 91616 91549 91501
2962.1252 91469 91447 91426 91396 91348 91276 91182 91077 90977 90902 90863
2972.7317 90861 90880 90896 90886 90833 90729 90574 90376 90142 89887 89631
2983.3384 89403 89233 89148 89165 89288 89505 89794 90130 90488 90844 91182
2993.9448 91486 91748 91962 92131 92257 92351 92421 92475 92518 92555 92585
3004.5515 92608 92626 92638 92649 92660 92673 92692 92714 92741 92769 92797
3015.1580 92821 92837 92843 92834 92810 92771 92720 92664 92611 92569 92542
3025.7646 92533 92539 92555 92577 92605 92637 92673 92708 92733 92739 92721
3036.3711 92682 92629 92572 92517 92464 92409 92349 92283 92215 92156 92117
3046.9778 92104 92117 92150 92190 92223 92238 92227 92189 92123 92032 91922
3057.5842 91800 91680 91576 91499 91456 91447 91465 91499 91539 91575 91602
3068.1909 91617 91615 91593 91546 91471 91368 91246 91124 91021 90959 90953
3078.7974 91007 91115 91260 91422 91583 91728 91849 91942 92007 92043 92053
3089.4041 92043 92021 92002 92001 92033 92105 92212 92342 92475 92597 92696
3100.0105 92771 92825 92864 92897 92927 92958 92988 93017 93042 93063 93080
3110.6172 93092 93103 93112 93120 93127 93134 93141 93149 93157 93163 93165
3121.2236 93161 93154 93143 93133 93123 93113 93102 93088 93072 93053 93031
3131.8303 93006 92979 92955 92939 92938 92953 92979 93007 93029 93041 93043
3142.4368 93039 93034 93028 93021 93014 93010 93013 93028 93056 93090 93122
3153.0435 93140 93140 93118 93080 93033 92988 92953 92933 92928 92932 92938
3163.6499 92940 92939 92935 92932 92930 92929 92926 92918 92906 92890 92874
3174.2566 92861 92853 92853 92862 92880 92906 92937 92970 93004 93036 93066
3184.8630 93095 93121 93143 93162 93176 93187 93197 93208 93220 93231 93240
3195.4697 93245 93248 93251 93258 93269 93284 93300 93315 93327 93335 93341
3206.0762 93345 93347 93346 93343 93339 93333 93330 93329 93331 93333 93335
3216.6829 93332 93326 93318 93311 93307 93308 93313 93320 93327 93331 93332
3227.2893 93331 93332 93340 93357 93380 93404 93421 93424 93415 93399 93383
3237.8960 93373 93370 93371 93374 93378 93382 93388 93396 93406 93415 93424
3248.5024 93433 93442 93452 93461 93468 93470 93466 93458 93448 93439 93435
3259.1091 93434 93437 93440 93443 93443 93444 93446 93453 93465 93480 93493
3269.7156 93499 93497 93487 93475 93466 93463 93464 93466 93464 93457 93446
3280.3223 93434 93425 93421 93425 93436 93453 93472 93487 93492 93486 93472
3290.9287 93456 93446 93446 93453 93462 93467 93466 93460 93454 93451 93454
3301.5354 93460 93467 93473 93478 93481 93482 93480 93475 93463 93445 93421
3312.1418 93392 93360 93332 93312 93305 93309 93321 93335 93346 93352 93354
3322.7485 93355 93357 93361 93364 93363 93359 93351 93342 93331 93321 93310
3333.3550 93301 93294 93292 93294 93301 93309 93317 93321 93318 93305 93280
3343.9617 93247 93213 93186 93175 93180 93196 93215 93229 93233 93227 93216
3354.5681 93206 93199 93198 93203 93211 93217 93215 93205 93188 93172 93166
3365.1748 93175 93198 93224 93239 93229 93191 93130 93060 92996 92948 92917
3375.7813 92899 92885 92867 92844 92818 92791 92765 92737 92707 92678 92657
3386.3879 92654 92676 92725 92792 92862 92921 92955 92965 92959 92954 92964
3396.9944 92997 93052 93116 93174 93210 93220 93208 93189 93178 93185 93210
3407.6011 93246 93279 93298 93300 93289 93274 93263 93259 93260 93263 93265
3418.2075 93266 93266 93268 93271 93277 93287 93302 93325 93354 93384 93410
3428.8142 93425 93429 93428 93427 93431 93441 93454 93465 93470 93468 93460
3439.4207 93448 93435 93424 93417 93414 93411 93407 93402 93397 93397 93402
3450.0273 93412 93422 93429 93430 93430 93431 93436 93443 93448 93447 93440
3460.6338 93430 93422 93419 93424 93433 93445 93455 93459 93455 93442 93420
3471.2405 93395 93374 93366 93372 93388 93407 93417 93411 93390 93360 93330
3481.8469 93308 93296 93288 93276 93256 93226 93191 93157 93129 93106 93086
3492.4536 93067 93049 93034 93026 93026 93034 93046 93055 93058 93052 93039
3503.0601 93026 93018 93017 93023 93036 93059 93097 93149 93210 93269 93312
3513.6667 93332 93332 93319 93303 93292 93290 93298 93312 93331 93351 93369
3524.2732 93381 93389 93395 93406 93423 93447 93470 93488 93495 93494 93491
3534.8799 93495 93514 93548 93591 93628 93643 93630 93589 93530 93469 93424
3545.4863 93408 93417 93439 93459 93469 93471 93472 93482 93502 93527 93550
3556.0930 93562 93561 93551 93539 93528 93519 93504 93476 93430 93369 93312
3566.6995 93286 93309 93370 93444 93508 93553 93575 93580 93575 93566 93558
3577.3062 93551 93543 93536 93533 93536 93539 93534 93505 93444 93357 93280
3587.9126 93254 93290 93361 93430 93469 93467 93432 93388 93358 93351 93360
3598.5193 93372 93382 93392 93407 93424 93433 93424 93391 93338 93283 93245
3609.1257 93232 93239 93255 93274 93295 93314 93327 93324 93297 93254 93215
3619.7324 93208 93243 93306 93372 93422 93442 93424 93363 93269 93182 93149
3630.3391 93181 93250 93325 93385 93425 93446 93453 93454 93453 93452 93449
3640.9456 93441 93429 93414 93392 93358 93300 93204 93073 92955 92919 92974
3651.5522 93076 93181 93265 93319 93343 93349 93354 93372 93402 93435 93461
3662.1587 93474 93475 93468 93456 93436 93400 93345 93282 93230 93202 93189
3672.7654 93167 93121 93054 93001 92998 93046 93115 93177 93221 93247 93268
3683.3718 93291 93318 93341 93342 93304 93224 93135 93088 93102 93156 93221
3693.9785 93275 93312 93337 93355 93369 93377 93372 93356 93337 93330 93341
3704.5850 93367 93392 93401 93384 93333 93259 93187 93153 93170 93221 93280
3715.1917 93333 93372 93395 93401 93391 93366 93332 93293 93258 93231 93221
3725.7981 93230 93256 93289 93319 93332 93318 93269 93181 93070 92972 92926
3736.4048 92948 93015 93098 93175 93234 93262 93247 93188 93105 93042 93022
3747.0112 93033 93046 93039 93010 92989 93010 93075 93156 93226 93270 93283
3757.6179 93274 93261 93265 93293 93337 93384 93422 93442 93443 93425 93395
3768.2244 93366 93353 93364 93400 93448 93494 93525 93537 93531 93512 93492
3778.8311 93480 93480 93486 93491 93489 93482 93477 93481 93498 93528 93564
3789.4375 93601 93630 93646 93642 93618 93575 93524 93476 93439 93410 93382
3800.0442 93352 93325 93315 93327 93354 93386 93415 93441 93473 93515 93563
3810.6506 93607 93635 93636 93602 93535 93455 93384 93333 93299 93273 93257
3821.2573 93256 93276 93311 93352 93391 93427 93459 93487 93510 93527 93537
3831.8638 93542 93541 93531 93506 93457 93389 93320 93279 93283 93324 93380
3842.4705 93435 93480 93519 93554 93588 93616 93634 93632 93599 93523 93403
3853.0769 93279 93216 93236 93304 93387 93463 93522 93556 93561 93538 93500
3863.6836 93462 93439 93428 93418 93399 93367 93326 93291 93279 93300 93351
3874.2900 93422 93494 93552 93583 93581 93549 93501 93458 93431 93421 93424
3884.8967 93437 93462 93498 93538 93569 93580 93567 93542 93526 93533 93555
3895.5032 93577 93585 93568 93527 93472 93417 93375 93350 93349 93379 93437
3906.1099 93514 93592 93657 93700 93721 93725 93719 93711 93701 93686 93665
3916.7163 93639 93618 93609 93615 93628 93639 93642 93638 93632 93633 93642
3927.3230 93654 93658 93648 93624 93596 93582 93595 93633 93684 93731 93763
3937.9294 93774 93764 93738 93706 93675 93650 93635 93626 93620 93615 93610
3948.5361 93608 93611 93619 93632 93646 93657 93662 93660 93650 93633 93613
3959.1426 93594 93582 93580 93589 93608 93631 93653 93667 93672 93667 93654
3969.7493 93637 93622 93610 93604 93602 93604 93612 93624 93641 93660 93676
3980.3557 93684 93682 93672 93658 93646 93639 93636 93635 93636 93637 93642
3990.9624 93651 93664 93676 93683 93680 93668 93654 93645 93644 93651 93661
##END= 
