##TITLE= Y.Matt YM49
##JCAMP-DX= 5.01  $$ datafile exported by Spectragryph v.1.2.14
##LONGDATE= 16/10/2017 14:28:46
##OWNER= unknown
##ORIGIN= unknown
##DATA TYPE= INFRARED SPECTRUM
##DATA CLASS= XYDATA
##SPECTROMETER/DATASYSTEM= unknown
##XUNITS= 1/CM
##YUNITS= TRANSMITTANCE
##XLABEL= Wavenumbers [1/cm]
##YLABEL= Transmittance
##XFACTOR= 1.000000
##YFACTOR= 1.000000
##FIRSTX= 3997.453000
##LASTX= 374.000000
##DELTAX= -1.416530
##NPOINTS= 2559
##XYDATA= (X++(Y..Y))
3997.453 0.89425 0.89447 0.89434 0.89378 0.89306 0.89249 0.89216 0.89207 0.89227 0.89277
3983.288 0.89326 0.89347 0.89351 0.89379 0.89435 0.89484 0.89496 0.89481 0.89472 0.89492
3969.122 0.89531 0.89561 0.89566 0.89560 0.89560 0.89569 0.89580 0.89589 0.89597 0.89593
3954.957 0.89553 0.89472 0.89383 0.89337 0.89355 0.89404 0.89421 0.89391 0.89356 0.89364
3940.792 0.89416 0.89472 0.89510 0.89533 0.89544 0.89539 0.89518 0.89500 0.89512 0.89546
3926.626 0.89577 0.89594 0.89612 0.89637 0.89653 0.89650 0.89636 0.89623 0.89613 0.89597
3912.461 0.89581 0.89578 0.89595 0.89617 0.89634 0.89657 0.89700 0.89746 0.89769 0.89773
3898.296 0.89765 0.89732 0.89680 0.89651 0.89692 0.89783 0.89821 0.89757 0.89644 0.89564
3884.130 0.89548 0.89574 0.89639 0.89718 0.89734 0.89674 0.89621 0.89626 0.89655 0.89673
3869.965 0.89711 0.89774 0.89811 0.89817 0.89835 0.89876 0.89898 0.89865 0.89778 0.89657
3855.800 0.89546 0.89541 0.89726 0.89940 0.90006 0.89965 0.89900 0.89853 0.89834 0.89821
3841.634 0.89789 0.89758 0.89803 0.89943 0.90078 0.90143 0.90164 0.90164 0.90136 0.90093
3827.469 0.90073 0.90070 0.90037 0.89974 0.89968 0.90063 0.90151 0.90172 0.90178 0.90181
3813.304 0.90124 0.90008 0.89896 0.89857 0.89932 0.90079 0.90183 0.90231 0.90290 0.90333
3799.139 0.90264 0.90136 0.90080 0.90118 0.90158 0.90155 0.90151 0.90178 0.90217 0.90242
3784.973 0.90262 0.90288 0.90301 0.90286 0.90260 0.90255 0.90278 0.90313 0.90342 0.90356
3770.808 0.90360 0.90361 0.90357 0.90337 0.90300 0.90256 0.90226 0.90243 0.90321 0.90402
3756.643 0.90406 0.90333 0.90239 0.90189 0.90228 0.90309 0.90344 0.90345 0.90394 0.90502
3742.477 0.90549 0.90485 0.90374 0.90272 0.90197 0.90165 0.90220 0.90359 0.90501 0.90589
3728.312 0.90620 0.90597 0.90525 0.90441 0.90413 0.90468 0.90551 0.90596 0.90592 0.90562
3714.147 0.90525 0.90493 0.90509 0.90608 0.90745 0.90836 0.90841 0.90775 0.90688 0.90635
3699.981 0.90643 0.90690 0.90734 0.90753 0.90741 0.90696 0.90632 0.90610 0.90708 0.90866
3685.816 0.90947 0.90918 0.90835 0.90768 0.90747 0.90755 0.90773 0.90788 0.90758 0.90680
3671.651 0.90632 0.90677 0.90765 0.90778 0.90719 0.90662 0.90639 0.90620 0.90559 0.90463
3657.485 0.90382 0.90344 0.90322 0.90283 0.90247 0.90273 0.90373 0.90442 0.90426 0.90384
3643.320 0.90356 0.90336 0.90307 0.90270 0.90224 0.90158 0.90083 0.90022 0.89990 0.90002
3629.155 0.90096 0.90234 0.90275 0.90195 0.90065 0.89954 0.89899 0.89901 0.89925 0.89944
3614.989 0.89970 0.90014 0.90041 0.90020 0.89964 0.89905 0.89850 0.89799 0.89761 0.89750
3600.824 0.89752 0.89741 0.89705 0.89659 0.89610 0.89546 0.89454 0.89346 0.89249 0.89185
3586.659 0.89139 0.89076 0.88998 0.88936 0.88898 0.88856 0.88770 0.88636 0.88485 0.88347
3572.493 0.88219 0.88077 0.87929 0.87824 0.87782 0.87724 0.87587 0.87429 0.87331 0.87306
3558.328 0.87296 0.87252 0.87185 0.87129 0.87092 0.87050 0.86982 0.86903 0.86853 0.86861
3544.163 0.86898 0.86919 0.86909 0.86890 0.86883 0.86907 0.86963 0.87026 0.87063 0.87076
3529.997 0.87091 0.87120 0.87145 0.87156 0.87173 0.87205 0.87235 0.87236 0.87209 0.87180
3515.832 0.87180 0.87199 0.87199 0.87163 0.87112 0.87070 0.87024 0.86958 0.86880 0.86795
3501.667 0.86693 0.86583 0.86493 0.86448 0.86449 0.86477 0.86493 0.86462 0.86380 0.86272
3487.501 0.86158 0.86034 0.85900 0.85769 0.85666 0.85594 0.85537 0.85474 0.85399 0.85314
3473.336 0.85220 0.85125 0.85030 0.84918 0.84779 0.84635 0.84522 0.84446 0.84391 0.84346
3459.171 0.84297 0.84217 0.84095 0.83960 0.83845 0.83756 0.83676 0.83593 0.83506 0.83413
3445.006 0.83305 0.83183 0.83058 0.82939 0.82830 0.82735 0.82657 0.82588 0.82517 0.82435
3430.840 0.82333 0.82216 0.82104 0.82013 0.81932 0.81833 0.81709 0.81576 0.81453 0.81338
3416.675 0.81227 0.81137 0.81074 0.81018 0.80941 0.80843 0.80736 0.80630 0.80538 0.80479
3402.510 0.80448 0.80410 0.80337 0.80233 0.80123 0.80030 0.79968 0.79933 0.79907 0.79865
3388.344 0.79792 0.79692 0.79585 0.79498 0.79441 0.79400 0.79353 0.79282 0.79189 0.79096
3374.179 0.79041 0.79037 0.79054 0.79057 0.79037 0.78992 0.78927 0.78855 0.78799 0.78771
3360.014 0.78764 0.78758 0.78729 0.78669 0.78599 0.78543 0.78502 0.78458 0.78410 0.78377
3345.848 0.78373 0.78385 0.78383 0.78359 0.78328 0.78300 0.78266 0.78226 0.78200 0.78197
3331.683 0.78202 0.78202 0.78206 0.78220 0.78237 0.78253 0.78269 0.78278 0.78271 0.78264
3317.518 0.78277 0.78309 0.78331 0.78326 0.78297 0.78262 0.78243 0.78255 0.78283 0.78291
3303.352 0.78266 0.78225 0.78197 0.78208 0.78258 0.78318 0.78353 0.78363 0.78368 0.78379
3289.187 0.78394 0.78420 0.78467 0.78526 0.78562 0.78562 0.78552 0.78586 0.78684 0.78807
3275.022 0.78913 0.78993 0.79050 0.79064 0.79030 0.78985 0.78973 0.78992 0.79019 0.79043
3260.856 0.79065 0.79081 0.79096 0.79142 0.79240 0.79365 0.79462 0.79510 0.79541 0.79592
3246.691 0.79655 0.79693 0.79698 0.79711 0.79770 0.79869 0.79973 0.80055 0.80117 0.80172
3232.526 0.80227 0.80273 0.80286 0.80265 0.80245 0.80275 0.80366 0.80480 0.80584 0.80678
3218.360 0.80772 0.80857 0.80926 0.80980 0.81023 0.81059 0.81103 0.81171 0.81263 0.81351
3204.195 0.81408 0.81442 0.81495 0.81578 0.81658 0.81714 0.81769 0.81859 0.81977 0.82086
3190.030 0.82157 0.82192 0.82215 0.82261 0.82345 0.82450 0.82551 0.82635 0.82702 0.82749
3175.864 0.82776 0.82796 0.82829 0.82887 0.82968 0.83064 0.83163 0.83266 0.83370 0.83458
3161.699 0.83507 0.83531 0.83569 0.83649 0.83755 0.83853 0.83920 0.83959 0.83989 0.84029
3147.534 0.84099 0.84199 0.84308 0.84395 0.84435 0.84440 0.84456 0.84520 0.84618 0.84710
3133.369 0.84785 0.84850 0.84900 0.84928 0.84948 0.84974 0.84999 0.85022 0.85054 0.85110
3119.203 0.85192 0.85282 0.85359 0.85415 0.85464 0.85526 0.85608 0.85703 0.85798 0.85875
3105.038 0.85922 0.85949 0.85974 0.85995 0.86000 0.85990 0.85984 0.85988 0.85994 0.85996
3090.873 0.85998 0.85999 0.85987 0.85965 0.85958 0.85994 0.86067 0.86149 0.86225 0.86301
3076.707 0.86378 0.86431 0.86428 0.86374 0.86310 0.86257 0.86202 0.86139 0.86086 0.86051
3062.542 0.86019 0.85967 0.85891 0.85806 0.85741 0.85699 0.85660 0.85617 0.85595 0.85627
3048.377 0.85704 0.85779 0.85805 0.85776 0.85728 0.85700 0.85699 0.85703 0.85679 0.85612
3034.211 0.85518 0.85425 0.85361 0.85334 0.85323 0.85305 0.85289 0.85312 0.85397 0.85529
3020.046 0.85683 0.85846 0.86010 0.86169 0.86320 0.86465 0.86604 0.86736 0.86860 0.86970
3005.881 0.87054 0.87102 0.87109 0.87078 0.87027 0.86968 0.86895 0.86788 0.86628 0.86411
2991.715 0.86150 0.85864 0.85553 0.85203 0.84801 0.84344 0.83846 0.83319 0.82773 0.82215
2977.550 0.81653 0.81106 0.80590 0.80127 0.79740 0.79452 0.79294 0.79296 0.79473 0.79811
2963.385 0.80282 0.80862 0.81519 0.82201 0.82857 0.83463 0.84002 0.84458 0.84826 0.85132
2949.219 0.85396 0.85620 0.85791 0.85906 0.85960 0.85956 0.85907 0.85827 0.85722 0.85595
2935.054 0.85449 0.85272 0.85041 0.84753 0.84448 0.84186 0.84009 0.83928 0.83945 0.84054
2920.889 0.84234 0.84444 0.84648 0.84828 0.84977 0.85098 0.85197 0.85271 0.85314 0.85327
2906.723 0.85324 0.85312 0.85284 0.85234 0.85168 0.85097 0.85033 0.84980 0.84939 0.84904
2892.558 0.84866 0.84818 0.84757 0.84692 0.84634 0.84585 0.84538 0.84486 0.84430 0.84382
2878.393 0.84340 0.84291 0.84226 0.84148 0.84073 0.84020 0.83996 0.83995 0.84013 0.84060
2864.227 0.84136 0.84224 0.84306 0.84379 0.84463 0.84580 0.84732 0.84891 0.85032 0.85156
2850.062 0.85276 0.85394 0.85504 0.85602 0.85691 0.85781 0.85884 0.86003 0.86124 0.86226
2835.897 0.86299 0.86350 0.86388 0.86426 0.86479 0.86542 0.86595 0.86626 0.86649 0.86692
2821.732 0.86754 0.86815 0.86858 0.86887 0.86914 0.86944 0.86968 0.86982 0.86995 0.87018
2807.566 0.87053 0.87091 0.87130 0.87175 0.87227 0.87285 0.87336 0.87373 0.87403 0.87435
2793.401 0.87473 0.87515 0.87564 0.87625 0.87691 0.87745 0.87782 0.87810 0.87839 0.87861
2779.236 0.87873 0.87883 0.87905 0.87935 0.87963 0.87995 0.88035 0.88080 0.88121 0.88160
2765.070 0.88192 0.88205 0.88195 0.88176 0.88164 0.88167 0.88186 0.88220 0.88260 0.88284
2750.905 0.88288 0.88288 0.88297 0.88308 0.88318 0.88339 0.88373 0.88394 0.88388 0.88375
2736.740 0.88385 0.88420 0.88456 0.88473 0.88469 0.88452 0.88429 0.88410 0.88404 0.88414
2722.574 0.88431 0.88450 0.88468 0.88479 0.88481 0.88483 0.88496 0.88514 0.88523 0.88515
2708.409 0.88499 0.88487 0.88490 0.88512 0.88540 0.88554 0.88553 0.88553 0.88562 0.88572
2694.244 0.88574 0.88568 0.88563 0.88564 0.88571 0.88585 0.88599 0.88613 0.88627 0.88641
2680.078 0.88650 0.88657 0.88663 0.88669 0.88671 0.88675 0.88691 0.88723 0.88758 0.88783
2665.913 0.88794 0.88794 0.88792 0.88799 0.88824 0.88864 0.88907 0.88943 0.88961 0.88956
2651.748 0.88940 0.88939 0.88961 0.88990 0.89005 0.89010 0.89024 0.89048 0.89063 0.89055
2637.582 0.89041 0.89047 0.89073 0.89100 0.89113 0.89118 0.89130 0.89154 0.89182 0.89206
2623.417 0.89231 0.89266 0.89307 0.89333 0.89327 0.89312 0.89321 0.89361 0.89405 0.89429
2609.252 0.89440 0.89466 0.89514 0.89551 0.89550 0.89531 0.89537 0.89582 0.89639 0.89672
2595.086 0.89664 0.89634 0.89613 0.89628 0.89675 0.89734 0.89780 0.89798 0.89796 0.89794
2580.921 0.89797 0.89800 0.89811 0.89845 0.89889 0.89913 0.89914 0.89923 0.89949 0.89967
2566.756 0.89958 0.89938 0.89926 0.89918 0.89908 0.89911 0.89945 0.89992 0.90027 0.90058
2552.590 0.90105 0.90158 0.90194 0.90213 0.90234 0.90266 0.90289 0.90284 0.90257 0.90242
2538.425 0.90248 0.90252 0.90228 0.90175 0.90119 0.90096 0.90142 0.90245 0.90347 0.90398
2524.260 0.90399 0.90372 0.90331 0.90288 0.90263 0.90263 0.90277 0.90296 0.90320 0.90343
2510.094 0.90355 0.90362 0.90376 0.90391 0.90389 0.90368 0.90348 0.90351 0.90369 0.90372
2495.929 0.90357 0.90339 0.90323 0.90299 0.90277 0.90271 0.90273 0.90271 0.90276 0.90303
2481.764 0.90349 0.90405 0.90462 0.90504 0.90511 0.90480 0.90435 0.90401 0.90384 0.90376
2467.599 0.90373 0.90380 0.90403 0.90443 0.90492 0.90528 0.90547 0.90567 0.90593 0.90598
2453.433 0.90567 0.90533 0.90532 0.90551 0.90552 0.90530 0.90508 0.90499 0.90496 0.90501
2439.268 0.90526 0.90574 0.90624 0.90651 0.90650 0.90634 0.90623 0.90635 0.90675 0.90730
2425.103 0.90782 0.90821 0.90837 0.90828 0.90820 0.90848 0.90919 0.90998 0.91039 0.91029
2410.937 0.90997 0.90983 0.90997 0.91012 0.90999 0.90976 0.90983 0.91025 0.91057 0.91046
2396.772 0.91000 0.90958 0.90937 0.90934 0.90938 0.90944 0.90947 0.90951 0.90969 0.90998
2382.607 0.91012 0.90996 0.90969 0.90953 0.90943 0.90923 0.90911 0.90935 0.90999 0.91075
2368.441 0.91136 0.91157 0.91124 0.91064 0.91035 0.91048 0.91065 0.91059 0.91045 0.91037
2354.276 0.91031 0.91026 0.91016 0.90989 0.90948 0.90916 0.90910 0.90933 0.90988 0.91077
2340.111 0.91172 0.91211 0.91163 0.91056 0.90960 0.90930 0.90962 0.91011 0.91040 0.91043
2325.945 0.91023 0.90984 0.90930 0.90877 0.90857 0.90900 0.90986 0.91048 0.91040 0.90987
2311.780 0.90944 0.90940 0.90966 0.91001 0.91034 0.91063 0.91087 0.91106 0.91121 0.91126
2297.615 0.91118 0.91117 0.91149 0.91213 0.91277 0.91316 0.91324 0.91307 0.91277 0.91247
2283.449 0.91225 0.91210 0.91203 0.91217 0.91259 0.91300 0.91301 0.91275 0.91284 0.91342
2269.284 0.91393 0.91396 0.91377 0.91381 0.91425 0.91502 0.91571 0.91573 0.91499 0.91425
2255.119 0.91428 0.91499 0.91574 0.91622 0.91644 0.91633 0.91585 0.91538 0.91539 0.91594
2240.953 0.91690 0.91814 0.91933 0.91997 0.91985 0.91912 0.91797 0.91686 0.91635 0.91644
2226.788 0.91658 0.91644 0.91617 0.91606 0.91637 0.91722 0.91816 0.91840 0.91774 0.91700
2212.623 0.91723 0.91856 0.91999 0.92050 0.92008 0.91969 0.92011 0.92121 0.92226 0.92270
2198.457 0.92244 0.92172 0.92085 0.92017 0.91997 0.92054 0.92198 0.92380 0.92510 0.92548
2184.292 0.92565 0.92644 0.92780 0.92907 0.92984 0.93004 0.92965 0.92852 0.92667 0.92469
2170.127 0.92350 0.92325 0.92312 0.92256 0.92238 0.92374 0.92653 0.92941 0.93135 0.93255
2155.962 0.93334 0.93338 0.93265 0.93200 0.93215 0.93257 0.93233 0.93153 0.93104 0.93091
2141.796 0.93045 0.92953 0.92870 0.92810 0.92733 0.92647 0.92598 0.92588 0.92572 0.92542
2127.631 0.92530 0.92560 0.92613 0.92642 0.92612 0.92529 0.92449 0.92427 0.92467 0.92518
2113.466 0.92525 0.92479 0.92411 0.92342 0.92270 0.92193 0.92134 0.92123 0.92172 0.92265
2099.300 0.92370 0.92453 0.92493 0.92488 0.92449 0.92398 0.92359 0.92353 0.92373 0.92379
2085.135 0.92335 0.92272 0.92272 0.92357 0.92457 0.92496 0.92473 0.92432 0.92403 0.92400
2070.970 0.92438 0.92503 0.92537 0.92509 0.92459 0.92447 0.92474 0.92510 0.92547 0.92587
2056.804 0.92621 0.92628 0.92583 0.92479 0.92368 0.92325 0.92375 0.92471 0.92569 0.92673
2042.639 0.92807 0.92966 0.93083 0.93078 0.92978 0.92919 0.93032 0.93322 0.93651 0.93818
2028.474 0.93713 0.93428 0.93174 0.93093 0.93157 0.93260 0.93338 0.93386 0.93419 0.93474
2014.308 0.93603 0.93780 0.93859 0.93743 0.93540 0.93445 0.93493 0.93564 0.93571 0.93516
2000.143 0.93405 0.93230 0.93049 0.92973 0.93023 0.93097 0.93108 0.93097 0.93112 0.93088
1985.978 0.92953 0.92764 0.92642 0.92641 0.92732 0.92861 0.92943 0.92949 0.93002 0.93209
1971.812 0.93428 0.93438 0.93246 0.93040 0.92936 0.92922 0.92961 0.93013 0.93044 0.93088
1957.647 0.93198 0.93341 0.93422 0.93408 0.93329 0.93185 0.92967 0.92758 0.92695 0.92795
1943.482 0.92932 0.93000 0.93012 0.93018 0.93028 0.93041 0.93048 0.93025 0.92945 0.92807
1929.316 0.92644 0.92501 0.92398 0.92338 0.92321 0.92336 0.92347 0.92322 0.92265 0.92199
1915.151 0.92133 0.92063 0.91988 0.91920 0.91883 0.91895 0.91939 0.91973 0.91974 0.91966
1900.986 0.91988 0.92049 0.92139 0.92249 0.92373 0.92493 0.92590 0.92651 0.92677 0.92682
1886.820 0.92700 0.92755 0.92832 0.92886 0.92897 0.92893 0.92904 0.92934 0.92967 0.92994
1872.655 0.93023 0.93069 0.93132 0.93171 0.93159 0.93126 0.93111 0.93114 0.93122 0.93133
1858.490 0.93150 0.93167 0.93176 0.93181 0.93189 0.93204 0.93221 0.93233 0.93243 0.93261
1844.325 0.93287 0.93300 0.93297 0.93298 0.93313 0.93330 0.93335 0.93325 0.93302 0.93265
1830.159 0.93222 0.93193 0.93196 0.93234 0.93280 0.93288 0.93247 0.93202 0.93194 0.93210
1815.994 0.93198 0.93138 0.93062 0.93008 0.92974 0.92933 0.92876 0.92819 0.92770 0.92726
1801.829 0.92678 0.92622 0.92561 0.92505 0.92458 0.92427 0.92419 0.92434 0.92450 0.92453
1787.663 0.92455 0.92468 0.92493 0.92517 0.92534 0.92546 0.92554 0.92561 0.92572 0.92603
1773.498 0.92684 0.92813 0.92923 0.92974 0.92990 0.92995 0.92999 0.93025 0.93094 0.93180
1759.333 0.93240 0.93276 0.93313 0.93349 0.93372 0.93388 0.93412 0.93446 0.93468 0.93464
1745.167 0.93438 0.93398 0.93352 0.93311 0.93283 0.93256 0.93227 0.93222 0.93280 0.93356
1731.002 0.93380 0.93363 0.93346 0.93348 0.93363 0.93378 0.93384 0.93377 0.93372 0.93390
1716.837 0.93427 0.93445 0.93442 0.93439 0.93439 0.93431 0.93414 0.93402 0.93395 0.93376
1702.671 0.93343 0.93322 0.93332 0.93340 0.93315 0.93260 0.93177 0.93070 0.92946 0.92810
1688.506 0.92661 0.92499 0.92321 0.92136 0.91960 0.91792 0.91626 0.91477 0.91357 0.91252
1674.341 0.91126 0.90972 0.90837 0.90780 0.90803 0.90839 0.90858 0.90901 0.91011 0.91168
1660.175 0.91304 0.91388 0.91429 0.91470 0.91611 0.91929 0.92171 0.92196 0.92164 0.92194
1646.010 0.92285 0.92336 0.92326 0.92296 0.92273 0.92263 0.92282 0.92355 0.92446 0.92479
1631.845 0.92464 0.92443 0.92450 0.92489 0.92549 0.92613 0.92668 0.92682 0.92639 0.92552
1617.679 0.92426 0.92249 0.92036 0.91817 0.91588 0.91319 0.90973 0.90522 0.89938 0.89182
1603.514 0.88204 0.86991 0.85616 0.84225 0.82980 0.82049 0.81601 0.81732 0.82410 0.83511
1589.349 0.84859 0.86247 0.87501 0.88536 0.89348 0.89966 0.90410 0.90687 0.90791 0.90662
1575.183 0.90246 0.89665 0.89059 0.88513 0.88184 0.88208 0.88528 0.89023 0.89556 0.89984
1561.018 0.90324 0.90842 0.91616 0.92107 0.92282 0.92387 0.92497 0.92610 0.92714 0.92792
1546.853 0.92841 0.92888 0.92953 0.93042 0.93180 0.93350 0.93434 0.93415 0.93364 0.93332
1532.687 0.93331 0.93322 0.93274 0.93185 0.93043 0.92827 0.92491 0.91889 0.90868 0.89523
1518.522 0.87935 0.85985 0.83874 0.82115 0.80958 0.80369 0.80339 0.81111 0.83127 0.85563
1504.357 0.86986 0.87677 0.88192 0.88724 0.89300 0.89887 0.90389 0.90721 0.90920 0.91084
1490.192 0.91283 0.91502 0.91669 0.91765 0.91819 0.91859 0.91896 0.91916 0.91896 0.91836
1476.026 0.91754 0.91669 0.91576 0.91455 0.91292 0.91088 0.90840 0.90536 0.90179 0.89797
1461.861 0.89414 0.89011 0.88523 0.87868 0.87133 0.86520 0.86023 0.85571 0.85146 0.84758
1447.696 0.84421 0.84163 0.84022 0.84039 0.84221 0.84530 0.84949 0.85537 0.86271 0.86889
1433.530 0.87235 0.87406 0.87499 0.87523 0.87463 0.87334 0.87167 0.86976 0.86764 0.86520
1419.365 0.86237 0.85944 0.85683 0.85458 0.85259 0.85093 0.84965 0.84864 0.84758 0.84609
1405.200 0.84377 0.84052 0.83645 0.83132 0.82477 0.81714 0.80945 0.80271 0.79782 0.79539
1391.034 0.79542 0.79792 0.80312 0.81024 0.81723 0.82272 0.82676 0.82962 0.83114 0.83110
1376.869 0.82948 0.82617 0.82109 0.81476 0.80831 0.80288 0.79949 0.79872 0.80052 0.80490
1362.704 0.81166 0.81922 0.82564 0.83049 0.83431 0.83749 0.84012 0.84219 0.84374 0.84472
1348.538 0.84504 0.84484 0.84454 0.84456 0.84502 0.84600 0.84754 0.84945 0.85138 0.85319
1334.373 0.85492 0.85657 0.85816 0.85978 0.86156 0.86331 0.86471 0.86565 0.86629 0.86673
1320.208 0.86682 0.86628 0.86501 0.86326 0.86131 0.85913 0.85645 0.85304 0.84887 0.84396
1306.042 0.83834 0.83236 0.82675 0.82239 0.81985 0.81917 0.81992 0.82142 0.82301 0.82424
1291.877 0.82494 0.82524 0.82553 0.82619 0.82722 0.82836 0.82932 0.82992 0.83004 0.82968
1277.712 0.82897 0.82812 0.82733 0.82678 0.82670 0.82732 0.82868 0.83051 0.83234 0.83371
1263.546 0.83450 0.83484 0.83497 0.83502 0.83507 0.83514 0.83530 0.83568 0.83645 0.83774
1249.381 0.83951 0.84170 0.84424 0.84707 0.85014 0.85346 0.85704 0.86088 0.86488 0.86889
1235.216 0.87278 0.87656 0.88027 0.88384 0.88706 0.88984 0.89218 0.89416 0.89576 0.89683
1221.050 0.89713 0.89633 0.89401 0.88983 0.88355 0.87518 0.86487 0.85309 0.84076 0.82922
1206.885 0.81988 0.81396 0.81223 0.81475 0.82089 0.82942 0.83889 0.84793 0.85555 0.86128
1192.720 0.86513 0.86739 0.86857 0.86926 0.86995 0.87092 0.87239 0.87455 0.87748 0.88111
1178.555 0.88531 0.88989 0.89455 0.89894 0.90288 0.90632 0.90925 0.91171 0.91386 0.91588
1164.389 0.91773 0.91934 0.92069 0.92192 0.92309 0.92424 0.92538 0.92652 0.92758 0.92848
1150.224 0.92920 0.92980 0.93040 0.93104 0.93165 0.93215 0.93254 0.93281 0.93283 0.93245
1136.059 0.93165 0.93046 0.92881 0.92644 0.92298 0.91809 0.91172 0.90422 0.89629 0.88879
1121.893 0.88264 0.87869 0.87763 0.87978 0.88490 0.89218 0.90043 0.90832 0.91465 0.91863
1107.728 0.91987 0.91816 0.91310 0.90410 0.89078 0.87328 0.85237 0.82934 0.80577 0.78322
1093.563 0.76291 0.74556 0.73147 0.72053 0.71228 0.70603 0.70131 0.69792 0.69570 0.69409
1079.397 0.69242 0.69023 0.68743 0.68409 0.68053 0.67739 0.67541 0.67510 0.67671 0.68039
1065.232 0.68628 0.69431 0.70416 0.71547 0.72798 0.74147 0.75558 0.76982 0.78379 0.79730
1051.067 0.81015 0.82210 0.83295 0.84274 0.85159 0.85951 0.86635 0.87194 0.87610 0.87858
1036.901 0.87894 0.87690 0.87310 0.86951 0.86831 0.87005 0.87292 0.87374 0.86972 0.85962
1022.736 0.84417 0.82585 0.80827 0.79468 0.78599 0.78017 0.77414 0.76650 0.75817 0.75059
1008.571 0.74433 0.73947 0.73675 0.73762 0.74320 0.75339 0.76676 0.78126 0.79523 0.80812
994.405 0.82036 0.83241 0.84406 0.85459 0.86342 0.87045 0.87596 0.88042 0.88427 0.88769
980.240 0.89061 0.89284 0.89438 0.89545 0.89619 0.89662 0.89683 0.89705 0.89740 0.89788
966.075 0.89850 0.89946 0.90096 0.90285 0.90466 0.90597 0.90660 0.90661 0.90611 0.90540
951.909 0.90491 0.90506 0.90609 0.90798 0.91041 0.91303 0.91564 0.91827 0.92095 0.92351
937.744 0.92565 0.92715 0.92807 0.92867 0.92923 0.92974 0.93011 0.93030 0.93030 0.93002
923.579 0.92943 0.92845 0.92688 0.92443 0.92087 0.91589 0.90898 0.89972 0.88810 0.87434
909.413 0.85878 0.84202 0.82500 0.80860 0.79337 0.77976 0.76828 0.75945 0.75363 0.75087
895.248 0.75072 0.75226 0.75442 0.75650 0.75873 0.76241 0.76927 0.78028 0.79503 0.81212
881.083 0.82990 0.84691 0.86194 0.87429 0.88400 0.89167 0.89803 0.90354 0.90831 0.91219
866.918 0.91518 0.91737 0.91884 0.91954 0.91949 0.91863 0.91663 0.91304 0.90764 0.90025
852.752 0.89049 0.87823 0.86402 0.84883 0.83348 0.81832 0.80326 0.78777 0.77117 0.75306
838.587 0.73369 0.71388 0.69414 0.67403 0.65243 0.62866 0.60313 0.57736 0.55388 0.53619
824.422 0.52841 0.53392 0.55343 0.58405 0.62033 0.65679 0.68977 0.71763 0.74018 0.75816
810.256 0.77274 0.78489 0.79501 0.80321 0.80986 0.81559 0.82080 0.82558 0.83000 0.83422
796.091 0.83824 0.84175 0.84444 0.84635 0.84788 0.84939 0.85087 0.85200 0.85239 0.85181
781.926 0.85005 0.84696 0.84282 0.83864 0.83569 0.83481 0.83595 0.83850 0.84168 0.84479
767.760 0.84707 0.84778 0.84641 0.84277 0.83673 0.82830 0.81792 0.80672 0.79614 0.78726
753.595 0.78061 0.77644 0.77509 0.77661 0.78025 0.78440 0.78745 0.78866 0.78833 0.78736
739.430 0.78678 0.78743 0.78955 0.79275 0.79656 0.80069 0.80481 0.80830 0.81083 0.81265
725.264 0.81411 0.81513 0.81568 0.81613 0.81681 0.81739 0.81707 0.81506 0.81097 0.80488
711.099 0.79738 0.78959 0.78279 0.77808 0.77589 0.77608 0.77822 0.78181 0.78621 0.79076
696.934 0.79509 0.79918 0.80294 0.80609 0.80847 0.81027 0.81168 0.81251 0.81252 0.81212
682.768 0.81205 0.81248 0.81307 0.81358 0.81390 0.81381 0.81330 0.81270 0.81238 0.81230
668.603 0.81208 0.81130 0.81035 0.80980 0.80957 0.80914 0.80816 0.80683 0.80563 0.80478
654.438 0.80402 0.80281 0.80077 0.79828 0.79625 0.79525 0.79528 0.79610 0.79740 0.79873
640.272 0.79973 0.80042 0.80067 0.79968 0.79677 0.79262 0.78912 0.78767 0.78800 0.78904
626.107 0.79003 0.79033 0.78880 0.78446 0.77742 0.76883 0.76027 0.75328 0.74885 0.74707
611.942 0.74742 0.74907 0.75110 0.75276 0.75396 0.75544 0.75800 0.76170 0.76592 0.76998
597.776 0.77358 0.77663 0.77895 0.78025 0.78034 0.77939 0.77760 0.77477 0.77050 0.76502
583.611 0.75928 0.75418 0.75030 0.74805 0.74766 0.74882 0.75078 0.75292 0.75526 0.75809
569.446 0.76127 0.76391 0.76468 0.76248 0.75689 0.74834 0.73816 0.72803 0.71922 0.71213
555.280 0.70651 0.70199 0.69839 0.69589 0.69486 0.69538 0.69705 0.69958 0.70301 0.70731
541.115 0.71198 0.71642 0.72051 0.72453 0.72889 0.73382 0.73905 0.74375 0.74724 0.74976
526.950 0.75213 0.75458 0.75652 0.75768 0.75861 0.75978 0.76080 0.76096 0.76029 0.75953
512.785 0.75926 0.75939 0.75939 0.75889 0.75834 0.75873 0.76051 0.76302 0.76497 0.76562
498.619 0.76553 0.76587 0.76740 0.77003 0.77309 0.77583 0.77774 0.77890 0.77995 0.78179
484.454 0.78493 0.78879 0.79203 0.79403 0.79542 0.79709 0.79901 0.80055 0.80145 0.80219
470.289 0.80315 0.80415 0.80488 0.80516 0.80496 0.80449 0.80425 0.80463 0.80546 0.80599
456.123 0.80574 0.80516 0.80472 0.80438 0.80395 0.80357 0.80336 0.80300 0.80215 0.80115
441.958 0.80075 0.80093 0.80090 0.80017 0.79927 0.79915 0.79987 0.80051 0.80051 0.80044
427.793 0.80126 0.80305 0.80464 0.80471 0.80363 0.80346 0.80551 0.80709 0.80491 0.79999
413.627 0.79458 0.79019 0.78707 0.78448 0.78250 0.78251 0.78491 0.78776 0.78864 0.78713
399.462 0.78497 0.78455 0.78666 0.78991 0.79270 0.79387 0.79324 0.79197 0.79095 0.78910
385.297 0.78465 0.77860 0.77420 0.77200 0.77016 0.76868 0.77090 0.77908 0.78626
##END= 
