##TITLE= 
##JCAMP-DX= 4.24
##DATA TYPE= INFRARED SPECTRUM
##ORIGIN= JASCO
##OWNER= 
##DATE= 21/07/22
##TIME= 12:20:09
##SPECTROMETER/DATA SYSTEM= 
##RESOLUTION= 
##DELTAX=   0.96423347
##XUNITS= 1/CM
##YUNITS= TRANSMITTANCE
##XFACTOR= 1.00000
##YFACTOR= 1E-005
##FIRSTX=   649.8934
##LASTX=  4000.6047
##NPOINTS=     3476
##FIRSTY=      0.84377
##MAXY=      0.98507
##MINY=      0.42429
##XYDATA= (X++(Y..Y))
649.8934 84377 84493 84359 84152 83985 83878 83787 83659 83462 83192 82857
660.4999 82480 82102 81772 81524 81356 81212 80956 80346 79139 77383 75425
671.1065 73531 71761 70118 68646 67413 66437 65665 65065 64755 65045 66274
681.7131 68575 71716 75168 78346 80846 82549 83567 84090 84241 84014 83320
692.3196 82099 80410 78477 76658 75350 74864 75300 76514 78176 79911 81446
702.9262 82681 83671 84550 85424 86316 87161 87867 88372 88684 88863 88970
713.5328 89012 88927 88622 88061 87340 86694 86382 86527 87037 87673 88185
724.1393 88422 88376 88154 87900 87703 87570 87455 87315 87148 86983 86857
734.7459 86776 86716 86631 86479 86239 85915 85527 85098 84653 84210 83786
745.3525 83381 82982 82550 82029 81346 80408 79090 77247 74742 71523 67711
755.9590 63640 59826 56852 55203 55135 56629 59430 63149 67356 71636 75625
766.5656 79031 81661 83445 84436 84781 84692 84404 84134 84051 84239 84680
777.1722 85273 85872 86348 86620 86661 86476 86068 85433 84569 83490 82232
787.7787 80842 79369 77864 76404 75111 74147 73662 73723 74251 75016 75708
798.3853 76036 75816 75014 73718 72101 70392 68873 67871 67709 68605 70562
808.9919 73310 76370 79196 81363 82677 83184 83082 82607 81951 81248 80598
819.5984 80107 79891 80049 80630 81605 82873 84287 85696 86974 88040 88864
830.2050 89458 89865 90138 90328 90469 90576 90653 90701 90725 90731 90725
840.8116 90702 90656 90580 90478 90358 90228 90080 89901 89672 89393 89078
851.4182 88748 88415 88064 87663 87175 86578 85882 85129 84378 83696 83135
862.0247 82711 82394 82114 81786 81347 80803 80238 79801 79656 79918 80615
872.6313 81676 82953 84272 85474 86441 87104 87442 87481 87286 86945 86524
883.2379 86026 85382 84497 83345 82059 80936 80347 80571 81650 83357 85286
893.8444 87025 88303 89057 89386 89458 89419 89353 89292 89240 89191 89136
904.4510 89064 88968 88851 88728 88620 88535 88463 88381 88255 88058 87765
915.0576 87363 86843 86208 85487 84743 84075 83598 83417 83589 84100 84864
925.6641 85748 86613 87352 87909 88274 88467 88524 88483 88383 88257 88119
936.2707 87965 87772 87518 87195 86824 86444 86095 85799 85564 85384 85258
946.8773 85183 85151 85125 85041 84828 84442 83906 83317 82829 82598 82724
957.4838 83220 84002 84925 85833 86601 87167 87524 87711 87778 87775 87737
968.0904 87685 87629 87566 87485 87369 87201 86975 86696 86384 86070 85785
978.6970 85553 85389 85290 85246 85238 85249 85263 85267 85245 85181 85066
989.3035 84898 84686 84439 84161 83843 83467 83023 82518 81982 81455 80967
999.9101 80524 80105 79670 79177 78593 77903 77108 76224 75271 74276 73267
1010.5167 72278 71347 70524 69861 69407 69198 69248 69551 70079 70800 71676
1021.1232 72667 73725 74795 75815 76727 77487 78071 78471 78684 78705 78523
1031.7299 78128 77515 76698 75713 74624 73530 72553 71826 71463 71522 71989
1042.3364 72768 73714 74668 75498 76123 76516 76684 76658 76472 76162 75762
1052.9430 75305 74815 74305 73781 73241 72677 72080 71436 70721 69914 68999
1063.5496 67983 66890 65758 64616 63474 62309 61083 59757 58310 56749 55095
1074.1561 53367 51577 49737 47891 46135 44607 43444 42722 42429 42484 42788
1084.7627 43278 43946 44811 45883 47123 48436 49681 50704 51364 51557 51242
1095.3693 50450 49286 47917 46534 45313 44388 43833 43674 43899 44470 45331
1105.9758 46417 47663 49016 50451 51967 53585 55327 57201 59187 61236 63281
1116.5824 65257 67114 68835 70432 71941 73404 74863 76345 77856 79379 80875
1127.1890 82296 83594 84734 85703 86511 87184 87755 88261 88734 89196 89655
1137.7955 90102 90512 90861 91130 91318 91440 91516 91564 91587 91580 91532
1148.4021 91433 91284 91094 90879 90656 90436 90223 90016 89809 89602 89405
1159.0087 89232 89097 89005 88939 88867 88742 88529 88219 87842 87464 87161
1169.6152 86988 86957 87024 87112 87138 87043 86813 86475 86080 85684 85330
1180.2218 85033 84787 84557 84302 83979 83554 83017 82378 81667 80936 80253
1190.8284 79696 79339 79241 79423 79857 80476 81184 81879 82476 82922 83195
1201.4349 83308 83292 83191 83054 82926 82849 82860 82985 83236 83603 84052
1212.0415 84530 84975 85334 85573 85681 85668 85554 85363 85116 84827 84505
1222.6481 84147 83744 83281 82743 82123 81423 80651 79814 78913 77945 76899
1233.2546 75759 74505 73119 71595 69957 68270 66631 65147 63883 62834 61916
1243.8612 60992 59930 58659 57194 55632 54110 52760 51671 50879 50373 50109
1254.4678 50024 50057 50156 50297 50488 50777 51239 51950 52956 54247 55751
1265.0743 57348 58903 60310 61523 62564 63503 64419 65372 66395 67508 68744
1275.6809 70149 71774 73636 75693 77842 79941 81854 83489 84813 85842 86623
1286.2875 87203 87624 87915 88097 88190 88212 88179 88106 88003 87878 87736
1296.8940 87583 87422 87260 87102 86946 86784 86595 86349 86015 85575 85035
1307.5006 84423 83780 83140 82523 81935 81379 80858 80369 79894 79391 78807
1318.1072 78111 77330 76568 75972 75673 75730 76101 76651 77192 77533 77549
1328.7137 77204 76537 75618 74514 73267 71899 70402 68738 66828 64579 61962
1339.3203 59099 56260 53733 51699 50231 49369 49180 49746 51114 53232 55916
1349.9269 58897 61898 64707 67205 69343 71116 72531 73599 74327 74683 74571
1360.5334 73820 72274 69944 67073 63977 60855 57788 54875 52313 50365 49237
1371.1400 48994 49571 50817 52522 54435 56323 58052 59588 60929 62060 62941
1381.7466 63553 63931 64182 64467 64979 65872 67148 68625 70087 71425 72651
1392.3531 73824 74987 76135 77214 78166 78972 79643 80186 80602 80896 81095
1402.9597 81250 81425 81665 81981 82346 82734 83140 83585 84080 84608 85124
1413.5663 85583 85972 86310 86629 86952 87257 87474 87518 87325 86851 86069
1424.1729 84976 83580 81858 79720 77074 73988 70812 68075 66175 65202 65038
1434.7794 65527 66528 67870 69355 70874 72456 74175 76051 78016 79939 81690
1445.3860 83209 84513 85640 86589 87315 87793 88049 88142 88122 88010 87801
1455.9926 87501 87199 87036 87020 87047 87045 86988 86871 86701 86510 86338
1466.5991 86209 86110 85999 85820 85505 84990 84305 83663 83326 83356 83651
1477.2057 84111 84695 85389 86175 87003 87788 88443 88913 89187 89293 89270
1487.8123 89177 89081 89033 89018 88987 88897 88731 88496 88225 88000 87920
1498.4188 88016 88208 88393 88514 88549 88475 88233 87697 86696 85311 84080
1509.0254 83303 82788 82319 81781 81097 80187 78992 77529 75902 74203 72370
1519.6320 70176 67418 64189 60892 57906 55339 53140 51282 49815 48799 48268
1530.2385 48270 48921 50334 52399 54678 56699 58315 59711 61261 63471 66785
1540.8451 70861 74439 77017 79066 80954 82732 84337 85741 86981 88112 89147
1551.4517 90038 90724 91185 91463 91621 91714 91802 91972 92266 92575 92800
1562.0582 92928 92979 92971 92920 92835 92724 92597 92468 92356 92266 92183
1572.6648 92080 91930 91711 91433 91152 90936 90798 90700 90608 90510 90406
1583.2714 90299 90182 90032 89819 89518 89114 88605 87997 87297 86510 85655
1593.8779 84779 83964 83300 82852 82638 82645 82847 83224 83761 84437 85215
1604.4845 86050 86896 87720 88487 89153 89666 89997 90160 90184 90088 89851
1615.0911 89422 88787 88055 87403 86926 86626 86497 86571 86897 87470 88201
1625.6976 88984 89759 90502 91176 91727 92123 92370 92507 92583 92652 92763
1636.3042 92921 93080 93198 93266 93291 93277 93229 93145 93031 92899 92787
1646.9108 92742 92767 92818 92853 92847 92791 92704 92643 92634 92638 92619
1657.5173 92568 92484 92367 92211 92018 91802 91589 91388 91176 90910 90533
1668.1239 90002 89336 88648 88057 87575 87118 86597 85975 85286 84612 84015
1678.7305 83506 83046 82561 81925 80958 79587 78069 76766 75737 74826 73909
1689.3370 72974 72087 71334 70780 70450 70343 70447 70719 71056 71282 71213
1699.9436 70779 70027 69009 67685 65940 63692 61029 58275 55830 53932 52585
1710.5502 51675 51093 50782 50737 51002 51684 52881 54491 56200 57812 59383
1721.1567 61060 62942 65031 67229 69400 71451 73368 75185 76928 78610 80281
1731.7633 82063 84086 86261 88215 89651 90585 91199 91666 92080 92459 92769
1742.3699 92986 93128 93234 93338 93448 93569 93721 93939 94238 94580 94904
1752.9764 95173 95383 95551 95694 95820 95930 96020 96094 96164 96242 96332
1763.5830 96428 96517 96594 96654 96695 96716 96715 96696 96671 96661 96676
1774.1896 96711 96750 96781 96802 96813 96822 96834 96855 96889 96935 96988
1784.7961 97041 97081 97096 97073 97006 96895 96757 96640 96603 96667 96787
1795.4027 96895 96936 96882 96740 96563 96435 96429 96551 96740 96918 97036
1806.0093 97079 97060 97008 96955 96928 96939 96988 97060 97137 97203 97248
1816.6158 97269 97274 97272 97268 97265 97262 97258 97261 97272 97286 97288
1827.2224 97266 97219 97170 97147 97166 97215 97270 97310 97333 97346 97362
1837.8290 97386 97410 97418 97395 97333 97242 97153 97105 97118 97179 97262
1848.4355 97347 97424 97490 97541 97573 97581 97564 97522 97464 97402 97351
1859.0421 97321 97317 97331 97348 97351 97324 97261 97167 97067 97004 97014
1869.6487 97096 97208 97300 97345 97337 97289 97222 97161 97119 97098 97085
1880.2552 97068 97038 96999 96956 96913 96866 96812 96751 96690 96645 96629
1890.8618 96643 96676 96717 96756 96793 96827 96856 96876 96880 96865 96834
1901.4684 96794 96756 96729 96716 96717 96726 96741 96761 96789 96830 96885
1912.0750 96949 97009 97050 97063 97042 96996 96942 96898 96881 96896 96947
1922.6815 97027 97125 97220 97289 97320 97312 97278 97233 97196 97173 97160
1933.2881 97149 97132 97109 97085 97062 97041 97015 96980 96943 96920 96932
1943.8947 96987 97071 97153 97204 97212 97184 97148 97134 97157 97211 97266
1954.5012 97285 97246 97151 97031 96927 96873 96882 96942 97017 97069 97070
1965.1078 97013 96918 96830 96797 96839 96942 97057 97133 97132 97048 96908
1975.7144 96752 96619 96531 96499 96524 96601 96711 96826 96911 96939 96903
1986.3209 96818 96712 96609 96519 96443 96382 96339 96324 96346 96404 96490
1996.9275 96588 96678 96744 96779 96787 96786 96793 96812 96834 96844 96835
2007.5341 96821 96824 96857 96910 96948 96941 96881 96795 96730 96727 96791
2018.1406 96891 96976 97003 96955 96847 96710 96585 96505 96484 96509 96545
2028.7472 96555 96516 96432 96328 96231 96152 96089 96036 95998 95995 96042
2039.3538 96135 96241 96312 96314 96246 96137 96033 95971 95967 96019 96114
2049.9604 96236 96363 96474 96544 96561 96531 96478 96433 96421 96449 96503
2060.5669 96565 96620 96659 96684 96694 96694 96687 96681 96679 96683 96690
2071.1736 96698 96707 96724 96755 96800 96846 96879 96891 96886 96882 96895
2081.7800 96932 96985 97032 97053 97035 96983 96913 96850 96816 96824 96873
2092.3867 96949 97029 97086 97102 97073 97011 96934 96861 96805 96767 96748
2102.9932 96746 96759 96787 96826 96866 96899 96921 96932 96939 96946 96952
2113.5999 96952 96942 96925 96912 96912 96932 96968 97012 97054 97091 97123
2124.2063 97148 97162 97155 97121 97066 97009 96972 96970 96999 97040 97066
2134.8130 97065 97040 97014 97009 97030 97064 97086 97076 97030 96957 96877
2145.4194 96805 96751 96721 96714 96720 96721 96702 96681 96715 96887 97250
2156.0261 97765 98264 98507 98309 97690 96883 96187 95791 95715 95853 96066
2166.6326 96251 96365 96412 96410 96375 96320 96264 96230 96231 96258 96286
2177.2393 96290 96259 96202 96142 96098 96081 96088 96108 96128 96133 96113
2187.8457 96065 95997 95931 95896 95916 95997 96121 96249 96335 96347 96279
2198.4524 96156 96024 95924 95877 95877 95907 95948 95996 96056 96127 96199
2209.0588 96247 96255 96224 96179 96156 96184 96264 96375 96481 96552 96579
2219.6655 96569 96537 96499 96467 96449 96450 96474 96518 96573 96625 96662
2230.2720 96679 96677 96662 96642 96621 96602 96580 96556 96528 96500 96483
2240.8787 96483 96506 96551 96605 96655 96688 96701 96698 96688 96682 96680
2251.4851 96680 96675 96659 96633 96606 96587 96586 96606 96642 96683 96715
2262.0918 96728 96718 96690 96657 96632 96627 96641 96668 96696 96714 96717
2272.6982 96706 96688 96670 96657 96651 96654 96666 96684 96701 96711 96707
2283.3049 96686 96649 96604 96559 96525 96511 96523 96557 96601 96640 96656
2293.9114 96645 96613 96576 96548 96536 96534 96531 96523 96512 96508 96519
2304.5181 96539 96556 96553 96525 96481 96438 96413 96411 96422 96433 96436
2315.1245 96434 96435 96442 96452 96451 96425 96371 96300 96236 96201 96203
2325.7312 96238 96295 96355 96408 96446 96471 96486 96496 96504 96512 96517
2336.3376 96519 96518 96514 96505 96489 96466 96437 96408 96390 96386 96395
2346.9443 96408 96418 96421 96417 96407 96396 96387 96384 96380 96365 96329
2357.5508 96270 96204 96155 96148 96194 96283 96390 96483 96541 96562 96560
2368.1575 96555 96557 96565 96565 96543 96500 96447 96399 96371 96365 96375
2378.7639 96390 96407 96427 96453 96488 96529 96568 96600 96622 96638 96650
2389.3706 96663 96676 96687 96694 96699 96703 96705 96703 96693 96678 96662
2399.9771 96653 96652 96660 96671 96678 96678 96671 96660 96648 96637 96630
2410.5837 96629 96636 96649 96663 96677 96685 96689 96687 96682 96674 96665
2421.1902 96660 96662 96673 96687 96698 96700 96691 96674 96655 96639 96628
2431.7969 96620 96613 96604 96589 96567 96535 96496 96456 96423 96400 96388
2442.4033 96380 96369 96351 96326 96297 96268 96242 96221 96205 96196 96192
2453.0100 96192 96194 96197 96203 96213 96228 96246 96263 96279 96292 96305
2463.6165 96317 96326 96324 96309 96282 96251 96225 96208 96199 96190 96177
2474.2231 96160 96144 96133 96129 96127 96122 96111 96098 96090 96095 96117
2484.8296 96150 96187 96214 96225 96219 96205 96194 96197 96219 96253 96286
2495.4363 96302 96292 96258 96213 96171 96147 96147 96167 96200 96232 96255
2506.0427 96263 96253 96230 96199 96170 96149 96139 96142 96157 96182 96214
2516.6494 96251 96287 96317 96332 96327 96301 96255 96200 96149 96114 96106
2527.2559 96130 96178 96241 96301 96345 96367 96368 96351 96326 96300 96275
2537.8625 96255 96243 96238 96242 96253 96266 96275 96279 96276 96270 96266
2548.4690 96266 96269 96269 96266 96261 96264 96283 96320 96366 96406 96422
2559.0757 96407 96368 96323 96290 96281 96296 96325 96356 96381 96397 96410
2569.6821 96421 96435 96447 96456 96456 96445 96423 96394 96363 96340 96329
2580.2888 96331 96340 96350 96353 96349 96343 96339 96342 96347 96347 96338
2590.8953 96320 96296 96273 96258 96250 96248 96247 96245 96239 96229 96216
2601.5020 96199 96184 96172 96166 96165 96169 96175 96181 96187 96191 96190
2612.1084 96183 96169 96147 96122 96095 96067 96038 96008 95979 95953 95936
2622.7151 95927 95928 95934 95943 95950 95952 95948 95939 95927 95916 95909
2633.3215 95909 95916 95929 95945 95960 95972 95978 95980 95979 95979 95983
2643.9282 95993 96008 96026 96046 96064 96081 96094 96103 96109 96113 96117
2654.5347 96126 96141 96163 96187 96211 96231 96244 96253 96258 96261 96262
2665.1414 96259 96253 96243 96234 96228 96228 96234 96242 96250 96256 96259
2675.7478 96258 96253 96244 96230 96212 96191 96170 96149 96125 96099 96072
2686.3545 96048 96031 96025 96029 96040 96054 96066 96077 96089 96104 96121
2696.9609 96138 96150 96155 96151 96140 96126 96113 96106 96107 96115 96128
2707.5676 96139 96145 96141 96129 96113 96098 96089 96089 96094 96100 96104
2718.1741 96104 96102 96100 96101 96106 96113 96118 96117 96105 96085 96058
2728.7808 96030 96004 95982 95962 95942 95921 95902 95889 95883 95884 95888
2739.3872 95889 95881 95865 95842 95820 95805 95804 95816 95837 95856 95866
2749.9939 95863 95851 95839 95834 95841 95855 95871 95882 95890 95896 95904
2760.6003 95910 95912 95907 95894 95881 95873 95871 95874 95876 95874 95870
2771.2070 95868 95872 95879 95883 95875 95853 95819 95784 95756 95740 95731
2781.8135 95724 95711 95693 95676 95667 95672 95689 95709 95722 95722 95707
2792.4202 95683 95656 95633 95618 95611 95609 95611 95613 95613 95605 95589
2803.0266 95566 95538 95513 95493 95480 95471 95463 95457 95453 95450 95451
2813.6333 95453 95456 95458 95460 95460 95456 95444 95425 95399 95371 95347
2824.2397 95330 95320 95315 95310 95300 95284 95258 95224 95182 95138 95095
2834.8464 95055 95017 94974 94923 94860 94787 94708 94630 94559 94498 94449
2845.4529 94412 94385 94365 94346 94326 94302 94274 94246 94220 94197 94178
2856.0596 94160 94137 94103 94051 93977 93882 93771 93651 93531 93413 93299
2866.6660 93190 93091 93008 92948 92915 92910 92929 92966 93011 93048 93060
2877.2727 93034 92971 92886 92804 92749 92728 92733 92741 92733 92699 92643
2887.8792 92572 92490 92395 92283 92156 92025 91901 91792 91696 91604 91509
2898.4858 91414 91327 91266 91239 91250 91291 91350 91417 91484 91551 91620
2909.0923 91693 91771 91856 91947 92043 92141 92235 92314 92365 92380 92357
2919.6990 92301 92225 92138 92048 91953 91852 91742 91627 91513 91408 91313
2930.3054 91228 91151 91083 91025 90980 90945 90914 90875 90818 90741 90647
2940.9121 90541 90427 90298 90143 89950 89715 89449 89172 88912 88694 88537
2951.5186 88448 88428 88475 88584 88748 88957 89196 89448 89694 89921 90116
2962.1252 90271 90379 90438 90446 90408 90332 90225 90099 89966 89836 89720
2972.7317 89628 89566 89533 89524 89528 89533 89526 89495 89436 89349 89241
2983.3384 89120 88998 88887 88803 88763 88785 88874 89025 89220 89435 89651
2993.9448 89858 90057 90259 90472 90700 90942 91191 91442 91689 91929 92161
3004.5515 92384 92597 92798 92990 93175 93358 93540 93723 93899 94060 94202
3015.1580 94323 94429 94525 94611 94686 94744 94786 94816 94845 94880 94923
3025.7646 94970 95014 95051 95081 95110 95143 95181 95219 95249 95264 95259
3036.3711 95238 95205 95168 95134 95106 95085 95070 95058 95048 95045 95056
3046.9778 95085 95136 95202 95273 95337 95387 95423 95447 95462 95465 95452
3057.5842 95424 95387 95354 95336 95340 95363 95393 95421 95437 95442 95439
3068.1909 95433 95428 95424 95422 95418 95411 95405 95401 95404 95414 95429
3078.7974 95442 95449 95444 95430 95412 95396 95390 95395 95411 95434 95461
3089.4041 95487 95511 95534 95554 95573 95591 95611 95633 95658 95684 95710
3100.0105 95732 95748 95761 95771 95780 95787 95791 95793 95795 95803 95818
3110.6172 95837 95856 95869 95875 95877 95884 95897 95917 95936 95948 95951
3121.2236 95945 95935 95926 95920 95918 95921 95927 95934 95940 95945 95950
3131.8303 95955 95959 95963 95968 95973 95980 95985 95988 95985 95973 95954
3142.4368 95935 95923 95923 95935 95953 95972 95987 95998 96005 96009 96006
3153.0435 95995 95978 95960 95946 95941 95944 95949 95949 95942 95930 95920
3163.6499 95916 95916 95914 95907 95892 95874 95857 95848 95847 95849 95851
3174.2566 95847 95836 95818 95796 95774 95757 95750 95752 95764 95779 95791
3184.8630 95795 95791 95784 95780 95784 95795 95805 95808 95800 95782 95762
3195.4697 95750 95751 95763 95778 95788 95789 95784 95780 95783 95794 95806
3206.0762 95809 95797 95771 95738 95710 95699 95709 95738 95774 95807 95826
3216.6829 95829 95822 95816 95816 95823 95829 95826 95811 95787 95764 95753
3227.2893 95761 95790 95832 95874 95905 95920 95925 95941 95984 96061 96153
3237.8960 96222 96229 96158 96023 95866 95733 95653 95626 95630 95641 95643
3248.5024 95636 95627 95622 95621 95624 95627 95631 95638 95647 95656 95659
3259.1091 95658 95654 95653 95663 95686 95718 95752 95777 95786 95776 95752
3269.7156 95721 95692 95671 95665 95677 95706 95748 95790 95820 95825 95805
3280.3223 95765 95719 95681 95656 95643 95639 95639 95643 95653 95668 95686
3290.9287 95701 95709 95709 95700 95686 95668 95651 95635 95623 95616 95614
3301.5354 95614 95614 95612 95609 95609 95616 95630 95647 95658 95658 95642
3312.1418 95618 95595 95581 95579 95585 95591 95591 95585 95576 95570 95567
3322.7485 95564 95554 95535 95510 95486 95472 95469 95475 95485 95492 95495
3333.3550 95495 95495 95497 95501 95507 95512 95517 95521 95526 95533 95539
3343.9617 95543 95544 95544 95548 95561 95580 95597 95601 95582 95541 95488
3354.5681 95438 95404 95394 95404 95428 95454 95471 95473 95459 95433 95408
3365.1748 95397 95406 95433 95469 95500 95520 95528 95529 95530 95530 95529
3375.7813 95523 95508 95482 95441 95386 95322 95264 95227 95226 95259 95314
3386.3879 95369 95407 95419 95411 95390 95365 95339 95317 95301 95297 95310
3396.9944 95336 95366 95385 95381 95347 95287 95213 95139 95078 95037 95017
3407.6011 95014 95018 95019 95010 94986 94946 94895 94841 94794 94760 94746
3418.2075 94750 94768 94792 94813 94827 94839 94860 94900 94966 95052 95148
3428.8142 95235 95303 95345 95364 95367 95359 95346 95328 95310 95291 95274
3439.4207 95262 95253 95247 95245 95244 95243 95242 95241 95244 95254 95276
3450.0273 95308 95345 95383 95414 95436 95451 95459 95461 95457 95447 95435
3460.6338 95431 95442 95472 95517 95563 95598 95613 95609 95591 95568 95549
3471.2405 95541 95547 95567 95597 95625 95639 95632 95608 95579 95563 95573
3481.8469 95608 95655 95693 95707 95691 95649 95596 95549 95522 95523 95550
3492.4536 95595 95646 95691 95722 95732 95722 95691 95645 95595 95559 95556
3503.0601 95595 95664 95736 95785 95802 95792 95774 95764 95772 95792 95814
3513.6667 95830 95839 95844 95844 95834 95806 95756 95687 95614 95550 95506
3524.2732 95486 95486 95504 95541 95594 95656 95711 95744 95753 95746 95740
3534.8799 95748 95772 95800 95816 95809 95780 95735 95679 95620 95567 95535
3545.4863 95540 95586 95653 95712 95737 95720 95676 95637 95635 95678 95749
3556.0930 95819 95863 95870 95842 95791 95720 95627 95504 95348 95178 95051
3566.6995 95038 95158 95351 95540 95684 95776 95827 95851 95857 95850 95834
3577.3062 95811 95789 95775 95772 95771 95755 95705 95611 95485 95368 95327
3587.9126 95394 95534 95679 95779 95818 95800 95747 95692 95670 95692 95750
3598.5193 95819 95873 95891 95867 95810 95729 95635 95538 95446 95376 95337
3609.1257 95327 95336 95354 95380 95416 95464 95514 95550 95557 95537 95508
3619.7324 95503 95538 95601 95662 95698 95690 95625 95499 95340 95221 95216
3630.3391 95319 95467 95610 95724 95795 95819 95797 95741 95675 95622 95597
3640.9456 95599 95613 95614 95575 95475 95294 95027 94728 94546 94596 94796
3651.5522 94998 95135 95200 95210 95193 95185 95210 95266 95329 95379 95409
3662.1587 95421 95423 95416 95393 95342 95252 95123 94990 94900 94875 94888
3672.7654 94898 94883 94854 94856 94925 95049 95188 95313 95411 95474 95502
3683.3718 95495 95456 95389 95294 95186 95097 95078 95148 95266 95381 95469
3693.9785 95530 95574 95609 95638 95658 95662 95652 95645 95663 95719 95799
3704.5850 95874 95915 95904 95834 95714 95574 95475 95467 95545 95655 95753
3715.1917 95821 95855 95852 95808 95728 95624 95521 95443 95407 95420 95474
3725.7981 95554 95637 95701 95731 95713 95638 95503 95322 95137 95021 95018
3736.4048 95097 95189 95249 95263 95231 95161 95073 95011 95027 95128 95254
3747.0112 95335 95329 95233 95101 95035 95098 95247 95400 95515 95583 95617
3757.6179 95641 95678 95738 95808 95863 95886 95873 95829 95771 95717 95686
3768.2244 95688 95725 95791 95871 95945 95995 96008 95978 95909 95820 95744
3778.8311 95716 95742 95797 95849 95879 95888 95892 95908 95942 95989 96033
3789.4375 96063 96071 96053 96011 95950 95879 95810 95753 95706 95660 95609
3800.0442 95561 95542 95568 95630 95698 95750 95781 95809 95851 95912 95976
3810.6506 96022 96034 96001 95921 95806 95683 95575 95490 95422 95379 95379
3821.2573 95435 95527 95613 95668 95690 95695 95703 95727 95767 95808 95832
3831.8638 95826 95787 95719 95630 95524 95415 95324 95280 95300 95370 95467
3842.4705 95571 95670 95753 95812 95838 95822 95758 95640 95463 95240 95028
3853.0769 94947 95052 95250 95437 95578 95667 95705 95688 95616 95511 95414
3863.6836 95374 95403 95470 95533 95562 95552 95519 95492 95495 95535 95596
3874.2900 95662 95718 95751 95756 95724 95657 95568 95481 95426 95422 95475
3884.8967 95573 95686 95775 95813 95792 95722 95638 95585 95591 95640 95695
3895.5032 95721 95701 95630 95519 95392 95277 95200 95178 95221 95323 95459
3906.1099 95597 95714 95802 95864 95907 95935 95946 95934 95889 95813 95720
3916.7163 95639 95598 95602 95633 95664 95678 95678 95677 95690 95718 95747
3927.3230 95759 95746 95712 95679 95670 95701 95761 95830 95886 95916 95921
3937.9294 95904 95872 95833 95795 95766 95753 95755 95764 95771 95771 95761
3948.5361 95749 95743 95752 95778 95816 95857 95889 95904 95900 95880 95853
3959.1426 95829 95815 95813 95822 95838 95856 95871 95881 95885 95883 95877
3969.7493 95866 95851 95833 95814 95800 95797 95808 95829 95855 95878 95894
3980.3557 95909 95924 95940 95950 95944 95917 95872 95821 95781 95764 95773
3990.9624 95798 95825 95843 95848 95843 95835 95832 95838 95853 95874 95898
##END= 
