##TITLE= 
##JCAMP-DX= 4.24
##DATA TYPE= INFRARED SPECTRUM
##ORIGIN= JASCO
##OWNER= 
##DATE= 21/07/22
##TIME= 12:33:22
##SPECTROMETER/DATA SYSTEM= 
##RESOLUTION= 
##DELTAX=   0.96423347
##XUNITS= 1/CM
##YUNITS= TRANSMITTANCE
##XFACTOR= 1.00000
##YFACTOR= 1E-005
##FIRSTX=   649.8934
##LASTX=  4000.6047
##NPOINTS=     3476
##FIRSTY=      0.60688
##MAXY=      0.96078
##MINY=      0.26434
##XYDATA= (X++(Y..Y))
649.8934 60688 60155 59606 59054 58486 57844 57017 55867 54316 52451 50604
660.4999 49287 48937 49661 51231 53305 55582 57796 59576 60440 60213 59324
671.1065 58301 57361 56504 55689 54888 54056 53071 51703 49674 46797 43142
681.7131 39158 35642 33549 33713 36559 41921 49019 56664 63636 69067 72648
692.3196 74587 75393 75612 75639 75663 75704 75708 75626 75447 75182 74828
702.9262 74356 73725 72932 72044 71199 70563 70277 70418 70976 71853 72881
713.5328 73854 74591 74999 75118 75130 75285 75765 76574 77541 78430 79060
724.1393 79367 79409 79314 79216 79190 79241 79334 79427 79495 79526 79511
734.7459 79435 79283 79045 78721 78321 77864 77367 76846 76307 75746 75147
745.3525 74484 73725 72830 71748 70420 68773 66728 64204 61131 57463 53211
755.9590 48480 43529 38800 34902 32516 32225 34345 38799 45115 52523 60143
766.5656 67189 73123 77720 81029 83275 84741 85684 86296 86700 86973 87168
777.1722 87320 87452 87576 87694 87804 87903 87984 88030 88022 87948 87814
787.7787 87653 87510 87423 87400 87410 87406 87346 87219 87048 86874 86736
798.3853 86650 86607 86585 86566 86544 86525 86517 86518 86503 86440 86300
808.9919 86080 85813 85560 85390 85350 85449 85654 85908 86149 86337 86458
819.5984 86525 86559 86584 86613 86646 86672 86675 86639 86554 86421 86240
830.2050 86001 85681 85248 84693 84049 83408 82890 82607 82604 82844 83219
840.8116 83603 83902 84078 84149 84153 84116 84040 83909 83703 83412 83041
851.4182 82597 82088 81521 80919 80331 79836 79529 79494 79768 80329 81093
862.0247 81937 82737 83402 83885 84191 84356 84432 84465 84488 84517 84555
872.6313 84597 84631 84645 84632 84587 84514 84423 84324 84226 84131 84038
883.2379 83943 83842 83732 83607 83465 83306 83140 82985 82859 82778 82739
893.8444 82727 82712 82663 82555 82382 82159 81912 81667 81437 81214 80982
904.4510 80723 80418 80038 79523 78803 77824 76603 75255 73965 72922 72254
915.0576 71987 72077 72461 73091 73932 74929 75977 76931 77652 78058 78149
925.6641 77987 77653 77213 76701 76129 75499 74807 74057 73267 72485 71793
936.2707 71301 71112 71292 71838 72679 73695 74749 75719 76520 77111 77498
946.8773 77717 77816 77833 77787 77674 77483 77206 76847 76422 75959 75486
957.4838 75016 74533 73980 73274 72339 71132 69654 67930 65980 63832 61573
968.0904 59412 57700 56838 57120 58569 60879 63509 65881 67590 68501 68721
978.6970 68461 67916 67189 66302 65242 64005 62613 61111 59550 57983 56450
989.3035 54976 53552 52125 50597 48840 46740 44232 41345 38200 34994 31958
999.9101 29342 27408 26434 26701 28426 31667 36231 41660 47315 52514 56692
1010.5167 59492 60780 60606 59152 56697 53606 50327 47358 45171 44098 44234
1021.1232 45407 47244 49310 51259 52944 54427 55906 57602 59648 62042 64668
1031.7299 67348 69916 72257 74317 76088 77589 78847 79889 80739 81420 81954
1042.3364 82362 82665 82887 83050 83172 83262 83324 83352 83340 83289 83205
1052.9430 83099 82980 82851 82705 82526 82299 82006 81636 81173 80596 79878
1063.5496 79002 77960 76761 75416 73922 72277 70514 68753 67233 66263 66120
1074.1561 66908 68491 70515 72534 74166 75209 75666 75684 75435 75034 74512
1084.7627 73850 73023 72028 70877 69580 68128 66506 64721 62838 60986 59346
1095.3693 58089 57318 57018 57051 57189 57187 56847 56062 54817 53160 51167
1105.9758 48915 46480 43961 41512 39353 37746 36937 37071 38138 39973 42327
1116.5824 44974 47791 50783 54022 57558 61341 65211 68944 72331 75235 77618
1127.1890 79525 81037 82243 83215 84005 84642 85147 85529 85799 85965 86042
1137.7955 86041 85972 85843 85657 85418 85133 84809 84450 84057 83626 83147
1148.4021 82615 82028 81400 80769 80200 79777 79575 79621 79859 80152 80338
1159.0087 80302 80055 79738 79568 79725 80261 81069 81939 82653 83078 83195
1169.6152 83070 82789 82403 81918 81311 80565 79690 78715 77677 76601 75495
1180.2218 74374 73282 72304 71568 71210 71331 71961 73035 74405 75890 77317
1190.8284 78563 79572 80340 80899 81291 81556 81725 81821 81863 81866 81843
1201.4349 81808 81772 81743 81731 81735 81752 81774 81794 81805 81808 81803
1212.0415 81794 81781 81757 81717 81648 81540 81387 81183 80933 80647 80334
1222.6481 79999 79636 79225 78743 78174 77515 76786 76026 75286 74628 74104
1233.2546 73749 73568 73531 73578 73632 73626 73516 73295 72989 72632 72250
1243.8612 71840 71366 70764 69966 68911 67564 65919 64003 61887 59686 57566
1254.4678 55725 54363 53651 53693 54500 55982 57957 60193 62469 64622 66567
1265.0743 68290 69816 71184 72420 73540 74540 75412 76144 76729 77165 77458
1275.6809 77621 77671 77630 77517 77346 77120 76837 76497 76112 75708 75329
1286.2875 75018 74809 74708 74689 74708 74713 74662 74532 74312 74007 73627
1296.8940 73182 72675 72097 71428 70640 69708 68603 67288 65724 63896 61854
1307.5006 59750 57833 56396 55684 55788 56583 57747 58866 59599 59775 59409
1318.1072 58639 57633 56517 55337 54070 52662 51050 49188 47053 44665 42100
1328.7137 39487 36987 34746 32858 31341 30165 29314 28865 29020 30067 32200
1339.3203 35301 38912 42533 45942 49237 52653 56375 60415 64599 68633 72234
1349.9269 75232 77598 79401 80749 81744 82462 82952 83240 83334 83210 82795
1360.5334 81969 80620 78770 76642 74555 72782 71500 70819 70785 71344 72337
1371.1400 73566 74856 76090 77186 78081 78734 79142 79323 79298 79081 78685
1381.7466 78124 77394 76477 75353 74087 72894 72113 71989 72533 73598 75036
1392.3531 76747 78629 80517 82193 83484 84364 84929 85291 85511 85607 85581
1402.9597 85443 85214 84929 84629 84341 84072 83803 83504 83147 82727 82259
1413.5663 81760 81220 80581 79730 78558 77079 75503 74092 72960 72098 71495
1424.1729 71170 71142 71376 71769 72159 72370 72274 71865 71267 70664 70248
1434.7794 70205 70669 71576 72625 73515 74172 74688 75177 75703 76273 76854
1445.3860 77409 77912 78337 78640 78769 78705 78474 78131 77716 77222 76556
1455.9926 75578 74328 73267 72784 72820 73195 73831 74738 75921 77259 78503
1466.5991 79454 80099 80543 80891 81203 81498 81731 81779 81499 80827 79781
1477.2057 78440 76946 75528 74467 74019 74291 75195 76503 77980 79466 80874
1487.8123 82124 83078 83603 83711 83511 83044 82233 80924 79020 76745 74849
1498.4188 74186 74910 76478 78294 80014 81498 82693 83560 84054 84229 84323
1509.0254 84477 84633 84721 84714 84603 84382 84046 83615 83134 82655 82202
1519.6320 81764 81326 80907 80548 80260 80003 79730 79427 79128 78869 78646
1530.2385 78402 78053 77542 76919 76329 75878 75519 75083 74303 72782 70076
1540.8451 66299 62457 59162 56195 53302 50420 47512 44468 41175 37722 34558
1551.4517 32383 31713 32498 34255 36607 39936 45938 56430 68737 77393 81718
1562.0582 83800 85104 86225 87306 88305 89146 89804 90336 90817 91257 91613
1572.6648 91847 91965 92012 92062 92183 92375 92586 92783 92966 93146 93326
1583.2714 93497 93644 93759 93837 93878 93882 93853 93797 93717 93607 93451
1593.8779 93239 92982 92716 92481 92309 92211 92181 92208 92278 92382 92508
1604.4845 92649 92801 92962 93132 93305 93465 93590 93665 93682 93638 93533
1615.0911 93380 93227 93137 93132 93174 93218 93237 93226 93198 93175 93170
1625.6976 93184 93208 93233 93254 93268 93270 93251 93200 93102 92955 92793
1636.3042 92696 92702 92771 92849 92905 92930 92916 92852 92722 92517 92273
1646.9108 92081 92009 92028 92064 92057 91971 91827 91749 91821 91966 92099
1657.5173 92185 92218 92196 92126 92030 91947 91902 91887 91868 91815 91709
1668.1239 91556 91399 91301 91291 91333 91370 91365 91309 91226 91148 91094
1678.7305 91057 91017 90962 90888 90828 90843 90970 91155 91331 91477 91601
1689.3370 91713 91812 91883 91907 91862 91736 91529 91278 91051 90926 90933
1699.9436 91036 91167 91285 91381 91460 91534 91604 91667 91715 91739 91736
1710.5502 91702 91633 91521 91362 91157 90939 90792 90803 90956 91153 91318
1721.1567 91429 91490 91510 91500 91469 91421 91358 91279 91180 91061 90928
1731.7633 90802 90721 90725 90803 90904 90982 91022 91026 91004 90972 90945
1742.3699 90934 90937 90941 90927 90879 90791 90680 90597 90597 90692 90847
1752.9764 91017 91176 91317 91444 91557 91651 91724 91781 91833 91891 91955
1763.5830 92013 92053 92066 92053 92020 91975 91920 91861 91812 91801 91850
1774.1896 91950 92078 92213 92351 92497 92663 92853 93067 93294 93522 93744
1784.7961 93946 94117 94243 94318 94341 94323 94283 94259 94286 94368 94464
1795.4027 94526 94519 94430 94272 94093 93973 93976 94109 94326 94560 94759
1806.0093 94900 94982 95018 95031 95046 95081 95141 95214 95281 95323 95331
1816.6158 95304 95251 95184 95109 95027 94936 94839 94753 94696 94678 94690
1827.2224 94713 94734 94757 94796 94863 94953 95053 95153 95247 95338 95423
1837.8290 95495 95541 95550 95514 95436 95330 95229 95172 95177 95232 95309
1848.4355 95389 95465 95536 95600 95652 95682 95678 95636 95563 95475 95392
1859.0421 95334 95307 95304 95304 95284 95225 95118 94965 94791 94638 94555
1869.6487 94550 94584 94601 94556 94430 94224 93959 93679 93430 93253 93168
1880.2552 93177 93270 93424 93610 93798 93964 94094 94190 94262 94323 94380
1890.8618 94429 94459 94463 94441 94404 94368 94350 94357 94386 94426 94465
1901.4684 94495 94511 94518 94523 94532 94553 94585 94630 94686 94754 94828
1912.0750 94900 94959 94993 94997 94976 94944 94917 94906 94904 94900 94885
1922.6815 94863 94845 94841 94845 94840 94811 94748 94664 94580 94523 94505
1933.2881 94522 94557 94591 94610 94607 94577 94519 94434 94332 94234 94160
1943.8947 94111 94065 93986 93843 93635 93387 93152 92981 92907 92935 93041
1954.5012 93186 93335 93461 93554 93616 93656 93681 93694 93683 93628 93509
1965.1078 93324 93099 92891 92762 92743 92817 92934 93036 93089 93087 93051
1975.7144 93009 92980 92980 93024 93132 93314 93557 93818 94039 94171 94198
1986.3209 94144 94056 93975 93925 93902 93899 93908 93934 93979 94031 94070
1996.9275 94071 94022 93933 93833 93760 93743 93787 93877 93981 94072 94135
2007.5341 94178 94221 94285 94375 94472 94546 94572 94549 94504 94482 94518
2018.1406 94611 94722 94794 94786 94698 94568 94456 94414 94461 94571 94695
2028.7472 94781 94799 94757 94684 94613 94562 94528 94500 94474 94465 94496
2039.3538 94575 94684 94780 94815 94768 94661 94541 94464 94462 94536 94656
2049.9604 94781 94878 94927 94928 94890 94833 94775 94733 94717 94727 94757
2060.5669 94799 94844 94883 94912 94930 94942 94957 94983 95017 95049 95065
2071.1736 95060 95036 95010 94999 95008 95031 95050 95051 95030 94995 94963
2081.7800 94947 94952 94971 94992 94999 94987 94952 94901 94843 94791 94755
2092.3867 94742 94750 94766 94774 94762 94725 94674 94628 94603 94606 94636
2102.9932 94684 94740 94798 94857 94913 94962 94999 95018 95017 95000 94974
2113.5999 94950 94935 94933 94941 94952 94954 94947 94937 94938 94960 95001
2124.2063 95039 95050 95016 94945 94862 94803 94790 94819 94864 94889 94869
2134.8130 94803 94717 94647 94622 94650 94714 94786 94838 94856 94842 94804
2145.4194 94749 94680 94599 94514 94441 94398 94411 94500 94686 94977 95352
2156.0261 95741 96024 96078 95844 95394 94896 94518 94336 94322 94394 94474
2166.6326 94518 94523 94504 94469 94420 94353 94279 94213 94178 94180 94216
2177.2393 94266 94311 94336 94333 94304 94260 94213 94172 94139 94106 94065
2187.8457 94014 93962 93926 93921 93954 94018 94092 94152 94174 94144 94066
2198.4524 93959 93851 93771 93736 93745 93783 93833 93883 93932 93979 94024
2209.0588 94057 94067 94051 94022 94001 94010 94057 94127 94188 94209 94178
2219.6655 94107 94025 93970 93964 94012 94098 94196 94282 94343 94378 94397
2230.2720 94410 94422 94430 94427 94406 94369 94323 94283 94257 94248 94254
2240.8787 94272 94300 94338 94385 94434 94475 94497 94495 94470 94431 94388
2251.4851 94352 94330 94327 94341 94367 94397 94425 94445 94458 94465 94470
2262.0918 94473 94475 94472 94465 94457 94450 94448 94454 94467 94480 94486
2272.6982 94480 94459 94425 94389 94363 94356 94370 94398 94429 94452 94460
2283.3049 94453 94436 94414 94393 94376 94367 94370 94384 94402 94415 94413
2293.9114 94390 94353 94317 94294 94289 94296 94300 94288 94259 94223 94191
2304.5181 94170 94156 94140 94112 94070 94024 93982 93950 93928 93912 93902
2315.1245 93902 93914 93934 93948 93937 93889 93808 93715 93640 93606 93621
2325.7312 93675 93754 93842 93924 93990 94035 94061 94074 94082 94087 94089
2336.3376 94083 94065 94036 94000 93958 93913 93871 93842 93841 93871 93925
2346.9443 93983 94029 94053 94052 94024 93971 93896 93803 93696 93578 93459
2357.5508 93355 93291 93281 93321 93389 93458 93511 93547 93571 93592 93614
2368.1575 93638 93670 93712 93765 93826 93888 93945 93995 94041 94083 94123
2378.7639 94160 94196 94232 94271 94317 94366 94414 94454 94480 94494 94498
2389.3706 94495 94485 94468 94443 94411 94378 94350 94328 94312 94298 94283
2399.9771 94265 94248 94232 94219 94206 94187 94157 94117 94070 94023 93987
2410.5837 93966 93965 93978 94001 94025 94049 94070 94091 94113 94135 94155
2421.1902 94172 94184 94189 94186 94176 94158 94132 94103 94074 94051 94037
2431.7969 94030 94028 94027 94020 94006 93981 93949 93913 93878 93849 93827
2442.4033 93812 93801 93792 93785 93777 93769 93760 93752 93745 93745 93752
2453.0100 93765 93781 93796 93807 93816 93826 93841 93861 93887 93914 93937
2463.6165 93950 93949 93933 93906 93876 93855 93850 93862 93885 93908 93922
2474.2231 93923 93915 93904 93893 93886 93878 93867 93853 93837 93820 93803
2484.8296 93786 93771 93759 93752 93750 93755 93767 93788 93817 93851 93882
2495.4363 93904 93915 93920 93925 93938 93957 93978 93995 94003 94004 94000
2506.0427 93991 93975 93949 93916 93882 93857 93849 93856 93873 93894 93913
2516.6494 93928 93938 93939 93929 93909 93885 93865 93858 93865 93879 93889
2527.2559 93889 93877 93862 93855 93867 93898 93939 93979 94002 94002 93979
2537.8625 93942 93903 93874 93862 93866 93880 93897 93911 93922 93933 93943
2548.4690 93951 93951 93935 93905 93868 93839 93830 93846 93879 93909 93919
2559.0757 93899 93855 93803 93762 93742 93743 93753 93761 93759 93747 93732
2569.6821 93720 93714 93715 93719 93722 93722 93716 93706 93696 93689 93686
2580.2888 93688 93689 93686 93677 93663 93647 93631 93618 93604 93586 93562
2590.8953 93533 93503 93476 93456 93447 93448 93458 93473 93488 93498 93500
2601.5020 93493 93480 93464 93447 93433 93424 93419 93417 93415 93410 93397
2612.1084 93376 93349 93318 93285 93251 93218 93186 93158 93135 93121 93114
2622.7151 93114 93120 93131 93145 93163 93182 93198 93211 93219 93222 93220
2633.3215 93215 93208 93197 93181 93156 93120 93072 93013 92948 92885 92829
2643.9282 92782 92744 92711 92678 92643 92607 92571 92537 92505 92478 92455
2654.5347 92437 92421 92404 92383 92356 92323 92287 92256 92235 92226 92228
2665.1414 92240 92261 92290 92329 92378 92433 92489 92539 92582 92616 92649
2675.7478 92684 92723 92764 92800 92828 92844 92850 92848 92843 92837 92832
2686.3545 92830 92833 92843 92859 92879 92901 92924 92950 92979 93011 93042
2696.9609 93069 93089 93103 93113 93124 93135 93146 93155 93164 93173 93184
2707.5676 93193 93198 93192 93175 93148 93118 93088 93062 93040 93019 92999
2718.1741 92977 92951 92919 92883 92842 92800 92757 92711 92660 92599 92532
2728.7808 92465 92403 92353 92314 92281 92249 92214 92178 92143 92112 92082
2739.3872 92051 92019 91988 91962 91945 91943 91955 91977 92003 92025 92038
2749.9939 92040 92034 92025 92017 92012 92009 92005 91997 91988 91982 91981
2760.6003 91986 91994 92001 92006 92009 92012 92017 92021 92023 92021 92019
2771.2070 92021 92033 92056 92084 92111 92128 92131 92122 92108 92096 92089
2781.8135 92087 92085 92084 92084 92089 92101 92119 92135 92144 92140 92125
2792.4202 92101 92077 92057 92042 92029 92016 92000 91980 91957 91934 91911
2803.0266 91891 91873 91858 91844 91830 91814 91794 91768 91737 91700 91659
2813.6333 91615 91570 91524 91477 91429 91382 91334 91284 91230 91173 91115
2824.2397 91058 91006 90960 90919 90877 90832 90777 90711 90634 90551 90466
2834.8464 90382 90299 90214 90122 90019 89904 89778 89645 89510 89377 89248
2845.4529 89122 88995 88861 88716 88560 88397 88230 88067 87911 87763 87622
2856.0596 87486 87352 87215 87073 86924 86772 86628 86502 86406 86341 86303
2866.6660 86281 86264 86242 86209 86161 86094 86006 85895 85757 85584 85368
2877.2727 85108 84812 84501 84207 83955 83763 83630 83548 83505 83495 83515
2887.8792 83561 83626 83698 83768 83832 83891 83951 84017 84090 84172 84266
2898.4858 84384 84538 84735 84972 85234 85499 85744 85956 86128 86264 86370
2909.0923 86449 86502 86528 86526 86496 86440 86356 86238 86078 85871 85617
2919.6990 85323 84999 84654 84290 83901 83480 83025 82549 82078 81647 81290
2930.3054 81033 80880 80817 80818 80851 80893 80937 80992 81082 81236 81479
2940.9121 81819 82252 82754 83292 83832 84345 84809 85217 85569 85872 86136
2951.5186 86368 86571 86741 86870 86946 86962 86910 86789 86594 86319 85951
2962.1252 85480 84912 84271 83609 82992 82482 82120 81904 81797 81733 81637
2972.7317 81449 81145 80746 80312 79927 79665 79575 79662 79899 80243 80652
2983.3384 81097 81563 82048 82551 83077 83631 84217 84830 85457 86074 86654
2993.9448 87174 87627 88016 88356 88658 88932 89184 89414 89625 89815 89983
3004.5515 90128 90246 90337 90402 90443 90464 90469 90458 90435 90402 90366
3015.1580 90339 90327 90335 90357 90384 90410 90431 90454 90487 90534 90592
3025.7646 90652 90704 90745 90780 90813 90850 90888 90922 90944 90949 90937
3036.3711 90905 90850 90766 90652 90507 90339 90162 89989 89835 89712 89632
3046.9778 89603 89631 89717 89850 90016 90199 90383 90557 90713 90839 90930
3057.5842 90982 91001 90993 90969 90934 90891 90842 90789 90740 90704 90687
3068.1909 90693 90721 90767 90828 90901 90979 91053 91112 91151 91167 91168
3078.7974 91165 91166 91171 91175 91170 91153 91128 91105 91092 91095 91106
3089.4041 91116 91115 91098 91067 91031 90997 90970 90952 90939 90925 90903
3100.0105 90866 90816 90760 90712 90686 90691 90726 90778 90832 90874 90899
3110.6172 90911 90921 90933 90948 90957 90954 90935 90903 90867 90833 90803
3121.2236 90776 90746 90712 90677 90643 90616 90596 90577 90554 90521 90478
3131.8303 90425 90371 90320 90278 90245 90218 90191 90156 90109 90048 89978
3142.4368 89907 89842 89788 89743 89701 89656 89605 89549 89492 89436 89383
3153.0435 89331 89277 89221 89164 89107 89052 88998 88941 88881 88816 88747
3163.6499 88673 88595 88512 88427 88345 88273 88216 88170 88125 88071 88001
3174.2566 87914 87815 87712 87609 87507 87406 87306 87210 87119 87032 86945
3184.8630 86850 86747 86640 86535 86437 86344 86248 86140 86017 85883 85749
3195.4697 85627 85524 85438 85361 85283 85197 85102 85001 84896 84790 84682
3206.0762 84569 84452 84331 84212 84098 83995 83906 83830 83761 83694 83622
3216.6829 83545 83465 83389 83322 83262 83206 83150 83091 83029 82969 82915
3227.2893 82871 82837 82809 82781 82751 82724 82710 82721 82763 82829 82894
3237.8960 82931 82917 82854 82761 82670 82608 82584 82592 82617 82643 82667
3248.5024 82689 82711 82736 82764 82795 82831 82873 82923 82976 83030 83080
3259.1091 83127 83169 83209 83247 83285 83321 83359 83397 83435 83468 83493
3269.7156 83510 83521 83532 83551 83581 83621 83663 83697 83715 83718 83709
3280.3223 83698 83692 83693 83697 83699 83691 83672 83644 83610 83574 83537
3290.9287 83497 83455 83410 83362 83310 83251 83182 83106 83024 82937 82844
3301.5354 82740 82624 82499 82373 82257 82157 82067 81979 81879 81763 81633
3312.1418 81503 81382 81277 81185 81097 81006 80907 80799 80686 80575 80472
3322.7485 80379 80296 80221 80149 80076 80002 79931 79869 79821 79787 79764
3333.3550 79748 79735 79727 79728 79742 79774 79821 79883 79956 80040 80135
3343.9617 80243 80365 80503 80654 80814 80976 81132 81277 81412 81542 81675
3354.5681 81818 81978 82156 82352 82564 82788 83019 83247 83467 83676 83878
3365.1748 84077 84279 84487 84697 84905 85112 85320 85532 85750 85973 86193
3375.7813 86404 86599 86776 86936 87087 87240 87405 87591 87799 88019 88232
3386.3879 88423 88583 88716 88833 88948 89072 89205 89347 89492 89640 89789
3396.9944 89939 90088 90230 90359 90467 90555 90624 90684 90745 90820 90915
3407.6011 91027 91145 91254 91344 91412 91466 91516 91571 91633 91695 91753
3418.2075 91803 91848 91895 91950 92015 92085 92158 92231 92303 92375 92445
3428.8142 92511 92572 92628 92681 92731 92777 92815 92840 92852 92854 92853
3439.4207 92859 92874 92901 92936 92976 93014 93047 93072 93091 93109 93134
3450.0273 93171 93222 93283 93348 93411 93463 93501 93522 93528 93521 93513
3460.6338 93512 93526 93558 93601 93645 93684 93715 93745 93777 93813 93849
3471.2405 93876 93889 93888 93880 93875 93881 93901 93933 93971 94008 94043
3481.8469 94073 94100 94121 94135 94139 94134 94127 94128 94147 94185 94236
3492.4536 94287 94326 94351 94363 94368 94365 94352 94323 94284 94251 94251
3503.0601 94299 94385 94478 94544 94568 94555 94529 94520 94544 94598 94667
3513.6667 94737 94797 94846 94881 94897 94885 94836 94753 94645 94534 94446
3524.2732 94400 94401 94445 94520 94610 94700 94776 94828 94854 94861 94861
3534.8799 94868 94890 94926 94964 94991 94994 94969 94916 94840 94755 94688
3545.4863 94664 94691 94751 94812 94845 94845 94829 94829 94871 94950 95041
3556.0930 95109 95135 95120 95083 95043 95003 94950 94858 94712 94527 94366
3566.6995 94321 94430 94637 94852 95023 95134 95194 95217 95215 95198 95171
3577.3062 95138 95104 95077 95063 95057 95047 95011 94932 94812 94686 94625
3587.9126 94685 94840 95017 95151 95210 95191 95118 95040 95001 95015 95060
3598.5193 95100 95112 95097 95072 95052 95036 95011 94960 94878 94782 94703
3609.1257 94668 94676 94713 94760 94808 94849 94873 94867 94825 94760 94717
3619.7324 94740 94835 94961 95064 95106 95069 94943 94739 94512 94366 94379
3630.3391 94512 94678 94827 94945 95034 95093 95116 95104 95065 95015 94973
3640.9456 94952 94945 94934 94891 94783 94580 94270 93915 93706 93790 94059
3651.5522 94325 94499 94575 94572 94530 94498 94511 94572 94655 94734 94797
3662.1587 94841 94869 94879 94859 94794 94671 94496 94316 94201 94177 94207
3672.7654 94230 94211 94159 94133 94190 94321 94477 94617 94723 94794 94832
3683.3718 94842 94828 94787 94712 94607 94496 94435 94462 94553 94659 94749
3693.9785 94820 94878 94933 94988 95036 95067 95073 95061 95051 95063 95099
3704.5850 95143 95170 95158 95087 94949 94758 94582 94511 94579 94730 94895
3715.1917 95028 95109 95128 95082 94979 94841 94700 94588 94524 94516 94558
3725.7981 94632 94714 94781 94817 94808 94744 94615 94424 94206 94044 94016
3736.4048 94117 94274 94418 94514 94552 94528 94448 94346 94277 94283 94340
3747.0112 94387 94378 94307 94224 94224 94354 94553 94736 94862 94922 94933
3757.6179 94926 94943 95006 95102 95192 95244 95244 95199 95130 95067 95034
3768.2244 95038 95073 95128 95195 95263 95321 95356 95359 95327 95272 95220
3778.8311 95197 95210 95235 95244 95224 95189 95165 95178 95232 95307 95376
3789.4375 95422 95437 95425 95391 95336 95261 95170 95071 94970 94873 94786
3800.0442 94721 94700 94735 94809 94888 94950 94992 95032 95089 95170 95257
3810.6506 95327 95359 95334 95249 95114 94965 94840 94751 94684 94630 94601
3821.2573 94621 94695 94798 94898 94980 95038 95076 95100 95115 95124 95124
3831.8638 95111 95077 95013 94912 94770 94605 94455 94372 94381 94466 94592
3842.4705 94729 94860 94970 95049 95085 95071 95003 94875 94680 94425 94165
3853.0769 94039 94136 94372 94622 94827 94974 95054 95056 94975 94831 94677
3863.6836 94580 94570 94618 94673 94693 94663 94603 94553 94556 94624 94735
3874.2900 94854 94953 95013 95025 94989 94917 94833 94763 94723 94716 94738
3884.8967 94788 94857 94929 94979 94985 94944 94875 94821 94821 94870 94932
3895.5032 94967 94950 94872 94744 94589 94441 94325 94265 94283 94392 94569
3906.1099 94772 94958 95105 95204 95259 95277 95260 95211 95127 95019 94907
3916.7163 94826 94801 94827 94872 94904 94909 94899 94899 94933 94996 95060
3927.3230 95093 95073 95001 94905 94825 94798 94834 94914 95008 95090 95145
3937.9294 95165 95149 95100 95029 94953 94889 94847 94827 94817 94810 94803
3948.5361 94802 94815 94847 94893 94945 94990 95021 95033 95029 95013 94994
3959.1426 94979 94975 94988 95018 95060 95103 95136 95149 95142 95119 95090
3969.7493 95062 95041 95026 95017 95019 95033 95063 95101 95135 95152 95144
3980.3557 95115 95082 95060 95059 95074 95092 95099 95087 95059 95027 95002
3990.9624 94987 94979 94976 94974 94977 94990 95013 95042 95071 95092 95102
##END= 
